* Measurement data measured by REW V5.31.3
* Source: Headset (DS by VECLAN.COM), MICROPHONE (Master Volume), L, volume: 0.720. Timing signal peak level -9.0 dBFS, measurement signal peak level -9.0 dBFS
* Format: 2M Log Swept Sine, 1 sweep at -30.6 dBFS using an acoustic timing reference
* Dated: Mar 6, 2025 9:01:39 PM
* REW Settings:
*  C-weighting compensation: Off
*  Target level: 85.0 dB
* Note: ; Fosi DS1 & Abigail Pro Delay -0.0669 ms (-23 mm, -0.9 in) using estimated IR delay relative to Acoustic reference played from SPEAKER R with no timing offset Clock adjustment: -26.1 ppm
* Measurement: Foam R
* Smoothing: 1/24 octave
* Frequency Step: 1/48 octave
* Start Frequency: 1.000 Hz
*
* Freq(Hz), SPL(dB), Phase(degrees)
1.000000, 81.274, 146.5307
1.015000, 81.513, 145.8540
1.030000, 81.749, 145.1763
1.044000, 81.967, 144.5423
1.060000, 82.212, 143.8154
1.075000, 82.437, 143.1312
1.090000, 82.658, 142.4464
1.106000, 82.890, 141.7285
1.120000, 83.093, 141.1329
1.138000, 83.356, 140.4232
1.150000, 83.533, 139.9830
1.172000, 83.859, 139.2310
1.180000, 83.978, 138.9699
1.206000, 84.365, 138.1732
1.220000, 84.573, 137.7719
1.241000, 84.884, 137.1986
1.250000, 85.017, 136.9615
1.265000, 85.236, 136.5758
1.280000, 85.453, 136.1994
1.315000, 85.950, 135.3449
1.320000, 86.019, 135.2244
1.340000, 86.293, 134.7441
1.360000, 86.559, 134.2647
1.380000, 86.816, 133.7449
1.400000, 87.064, 133.2051
1.430000, 87.416, 132.3809
1.450000, 87.635, 131.8211
1.475000, 87.891, 131.1263
1.500000, 88.125, 130.4804
1.525000, 88.340, 129.8970
1.550000, 88.537, 129.3669
1.575000, 88.719, 128.8624
1.600000, 88.888, 128.3598
1.625000, 89.046, 127.8810
1.650000, 89.196, 127.4180
1.675000, 89.340, 126.9637
1.700000, 89.480, 126.5122
1.725000, 89.618, 126.0581
1.750000, 89.757, 125.5970
1.775000, 89.899, 125.1110
1.800000, 90.047, 124.5840
1.825000, 90.201, 124.0453
1.850000, 90.360, 123.5101
1.875000, 90.520, 122.9998
1.900000, 90.680, 122.5187
1.925000, 90.840, 122.0629
1.950000, 90.998, 121.6281
1.975000, 91.156, 121.1988
2.000000, 91.313, 120.7602
2.030000, 91.500, 120.2452
2.060000, 91.686, 119.7354
2.090000, 91.869, 119.2249
2.120000, 92.050, 118.7087
2.140000, 92.170, 118.3592
2.180000, 92.405, 117.6236
2.200000, 92.522, 117.2311
2.240000, 92.751, 116.4574
2.270000, 92.920, 115.8986
2.300000, 93.087, 115.3581
2.330000, 93.253, 114.8333
2.360000, 93.416, 114.3210
2.400000, 93.630, 113.6143
2.430000, 93.789, 113.0857
2.470000, 93.997, 112.3843
2.500000, 94.150, 111.8569
2.540000, 94.351, 111.1475
2.580000, 94.549, 110.4169
2.620000, 94.743, 109.6629
2.650000, 94.886, 109.1080
2.690000, 95.073, 108.3827
2.720000, 95.211, 107.8492
2.760000, 95.392, 107.1521
2.800000, 95.569, 106.4308
2.850000, 95.785, 105.5364
2.900000, 95.996, 104.6501
2.950000, 96.201, 103.7669
3.000000, 96.400, 102.8615
3.040000, 96.555, 102.1359
3.070000, 96.669, 101.5987
3.110000, 96.817, 100.8933
3.150000, 96.963, 100.2009
3.200000, 97.140, 99.3245
3.250000, 97.312, 98.4534
3.300000, 97.480, 97.5976
3.350000, 97.642, 96.7508
3.400000, 97.799, 95.8860
3.450000, 97.951, 95.0234
3.500000, 98.099, 94.1788
3.550000, 98.241, 93.3566
3.600000, 98.381, 92.5321
3.650000, 98.516, 91.7195
3.700000, 98.648, 90.9227
3.750000, 98.775, 90.1342
3.820000, 98.946, 89.0203
3.870000, 99.064, 88.2381
3.950000, 99.246, 87.0322
4.000000, 99.356, 86.2865
4.060000, 99.484, 85.4066
4.120000, 99.607, 84.5446
4.180000, 99.726, 83.6931
4.250000, 99.858, 82.6993
4.310000, 99.969, 81.8789
4.370000, 100.076, 81.0869
4.440000, 100.197, 80.1686
4.500000, 100.298, 79.4008
4.550000, 100.379, 78.7749
4.620000, 100.489, 77.8994
4.680000, 100.581, 77.1694
4.750000, 100.686, 76.3510
4.820000, 100.788, 75.5415
4.870000, 100.859, 74.9734
4.940000, 100.956, 74.1985
5.000000, 101.038, 73.5394
5.080000, 101.144, 72.6779
5.150000, 101.235, 71.9520
5.220000, 101.324, 71.2276
5.300000, 101.424, 70.4155
5.380000, 101.522, 69.6247
5.450000, 101.605, 68.9325
5.520000, 101.686, 68.2604
5.600000, 101.777, 67.5008
5.700000, 101.886, 66.5597
5.800000, 101.992, 65.6418
5.900000, 102.096, 64.7347
6.000000, 102.197, 63.8447
6.080000, 102.275, 63.1369
6.150000, 102.341, 62.5343
6.220000, 102.406, 61.9283
6.300000, 102.478, 61.2462
6.400000, 102.564, 60.4041
6.500000, 102.646, 59.5698
6.600000, 102.726, 58.7560
6.700000, 102.803, 57.9460
6.800000, 102.877, 57.1516
6.900000, 102.948, 56.3681
7.000000, 103.014, 55.6085
7.100000, 103.077, 54.8594
7.200000, 103.137, 54.1295
7.300000, 103.194, 53.4140
7.400000, 103.251, 52.7222
7.500000, 103.306, 52.0437
7.620000, 103.369, 51.2528
7.750000, 103.436, 50.4244
7.880000, 103.499, 49.6132
8.000000, 103.556, 48.8889
8.120000, 103.611, 48.1779
8.250000, 103.671, 47.4245
8.380000, 103.729, 46.6904
8.500000, 103.781, 46.0227
8.620000, 103.831, 45.3683
8.750000, 103.884, 44.6722
8.850000, 103.925, 44.1429
9.000000, 103.984, 43.3651
9.120000, 104.030, 42.7500
9.250000, 104.078, 42.0917
9.380000, 104.125, 41.4454
9.500000, 104.166, 40.8502
9.620000, 104.207, 40.2659
9.750000, 104.248, 39.6403
9.880000, 104.281, 39.0263
10.000000, 104.301, 38.4768
10.150000, 104.314, 37.7758
10.300000, 104.320, 37.1029
10.440000, 104.318, 36.4994
10.600000, 104.314, 35.8374
10.750000, 104.310, 35.2423
10.900000, 104.307, 34.6701
11.060000, 104.306, 34.0516
11.200000, 104.307, 33.4829
11.380000, 104.308, 32.7756
11.500000, 104.307, 32.3180
11.720000, 104.304, 31.5072
11.800000, 104.304, 31.2212
12.060000, 104.306, 30.3024
12.200000, 104.309, 29.7912
12.410000, 104.317, 29.0510
12.500000, 104.319, 28.7438
12.650000, 104.322, 28.2452
12.800000, 104.324, 27.7630
13.150000, 104.329, 26.6508
13.200000, 104.330, 26.4893
13.400000, 104.336, 25.8589
13.600000, 104.343, 25.2516
13.800000, 104.350, 24.6656
14.000000, 104.357, 24.0944
14.300000, 104.368, 23.2017
14.500000, 104.373, 22.6254
14.750000, 104.378, 21.9303
15.000000, 104.382, 21.2615
15.250000, 104.391, 20.5711
15.500000, 104.401, 19.9086
15.750000, 104.409, 19.2756
16.000000, 104.416, 18.6688
16.250000, 104.423, 18.0410
16.500000, 104.430, 17.4344
16.750000, 104.436, 16.8482
17.000000, 104.444, 16.2771
17.250000, 104.453, 15.6898
17.500000, 104.460, 15.1168
17.750000, 104.467, 14.5621
18.000000, 104.472, 14.0221
18.250000, 104.477, 13.4686
18.500000, 104.482, 12.9297
18.750000, 104.485, 12.4089
19.000000, 104.489, 11.9051
19.250000, 104.494, 11.3888
19.500000, 104.500, 10.8882
19.750000, 104.504, 10.4032
20.000000, 104.509, 9.9327
20.299999, 104.514, 9.3521
20.600000, 104.519, 8.7888
20.900000, 104.523, 8.2412
21.200001, 104.526, 7.6889
21.400000, 104.527, 7.3222
21.799999, 104.527, 6.6102
22.000000, 104.526, 6.2641
22.400000, 104.522, 5.5664
22.700001, 104.519, 5.0627
23.000000, 104.516, 4.5735
23.299999, 104.512, 4.0823
23.600000, 104.508, 3.6011
24.000000, 104.502, 2.9746
24.299999, 104.498, 2.4988
24.700001, 104.492, 1.8815
25.000000, 104.487, 1.4337
25.400000, 104.479, 0.8366
25.799999, 104.471, 0.2585
26.200001, 104.463, -0.3193
26.500000, 104.456, -0.7548
26.900000, 104.446, -1.3207
27.200001, 104.438, -1.7392
27.600000, 104.427, -2.2828
28.000000, 104.415, -2.8066
28.500000, 104.402, -3.4673
29.000000, 104.389, -4.1140
29.500000, 104.374, -4.7498
30.000000, 104.355, -5.3672
30.400000, 104.339, -5.8629
30.700001, 104.326, -6.2240
31.100000, 104.309, -6.6949
31.500000, 104.292, -7.1625
32.000000, 104.270, -7.7354
32.500000, 104.246, -8.3040
33.000000, 104.221, -8.8566
33.500000, 104.196, -9.4149
34.000000, 104.172, -9.9589
34.500000, 104.149, -10.4884
35.000000, 104.126, -11.0069
35.500000, 104.103, -11.5247
36.000000, 104.080, -12.0305
36.500000, 104.056, -12.5303
37.000000, 104.032, -13.0179
37.500000, 104.007, -13.5016
38.200001, 103.971, -14.1514
38.700001, 103.947, -14.6085
39.500000, 103.907, -15.3424
40.000000, 103.879, -15.7906
40.599998, 103.843, -16.3230
41.200001, 103.808, -16.8265
41.799999, 103.774, -17.3227
42.500000, 103.734, -17.9056
43.099998, 103.700, -18.3976
43.700001, 103.667, -18.8723
44.400002, 103.629, -19.4350
45.000000, 103.596, -19.9123
45.500000, 103.570, -20.2875
46.200001, 103.535, -20.8165
46.799999, 103.506, -21.2943
47.500000, 103.467, -21.8317
48.200001, 103.427, -22.3331
48.700001, 103.400, -22.6773
49.400002, 103.362, -23.1558
50.000000, 103.328, -23.5623
50.799999, 103.280, -24.0915
51.500000, 103.237, -24.5557
52.200001, 103.193, -25.0152
53.000000, 103.143, -25.5048
53.799999, 103.095, -26.0065
54.500000, 103.057, -26.4591
55.200001, 103.016, -26.9133
56.000000, 102.972, -27.3936
57.000000, 102.930, -28.0287
58.000000, 102.863, -28.7347
59.000000, 102.792, -29.1847
60.000000, 102.744, -29.6600
60.799999, 102.689, -30.1354
61.500000, 102.636, -30.4533
62.200001, 102.588, -30.7408
63.000000, 102.536, -31.1046
64.000000, 102.471, -31.5092
65.000000, 102.412, -32.0227
66.000000, 102.351, -32.5469
67.000000, 102.292, -33.0018
68.000000, 102.234, -33.4925
69.000000, 102.175, -33.9306
70.000000, 102.121, -34.3287
71.000000, 102.065, -34.7749
72.000000, 102.002, -35.2129
73.000000, 101.937, -35.5910
74.000000, 101.876, -35.9785
75.000000, 101.815, -36.3874
76.199997, 101.743, -36.8791
77.500000, 101.666, -37.3650
78.800003, 101.593, -37.8184
80.000000, 101.525, -38.2550
81.199997, 101.456, -38.6843
82.500000, 101.377, -39.1383
83.800003, 101.297, -39.5402
85.000000, 101.226, -39.9040
86.199997, 101.158, -40.2885
87.500000, 101.088, -40.6651
88.500000, 101.036, -40.9844
90.000000, 100.955, -41.5172
91.199997, 100.883, -41.9149
92.500000, 100.813, -42.2271
93.800003, 100.747, -42.5539
95.000000, 100.685, -42.8889
96.199997, 100.619, -43.1832
97.500000, 100.550, -43.4585
98.800003, 100.481, -43.7676
100.000000, 100.416, -44.0800
101.500000, 100.335, -44.4827
103.000000, 100.254, -44.8515
104.400002, 100.180, -45.1797
106.000000, 100.096, -45.5271
107.500000, 100.018, -45.8357
109.000000, 99.941, -46.1314
110.599998, 99.857, -46.5045
112.000000, 99.786, -46.7961
113.800003, 99.700, -47.1248
115.000000, 99.643, -47.3469
117.199997, 99.533, -47.7205
118.000000, 99.491, -47.8202
120.599998, 99.369, -48.1628
122.000000, 99.305, -48.4646
124.099998, 99.208, -48.9391
125.000000, 99.167, -49.1302
126.500000, 99.103, -49.3568
128.000000, 99.039, -49.5966
131.500000, 98.881, -50.1024
132.000000, 98.858, -50.1728
134.000000, 98.769, -50.4597
136.000000, 98.686, -50.7434
138.000000, 98.606, -51.0149
140.000000, 98.526, -51.2572
143.000000, 98.410, -51.6409
145.000000, 98.333, -51.9069
147.500000, 98.235, -52.2099
150.000000, 98.138, -52.4578
152.500000, 98.045, -52.7113
155.000000, 97.954, -52.9806
157.500000, 97.862, -53.2307
160.000000, 97.769, -53.4934
162.500000, 97.680, -53.7652
165.000000, 97.598, -53.9998
167.500000, 97.515, -54.2116
170.000000, 97.428, -54.3749
172.500000, 97.340, -54.5728
175.000000, 97.250, -54.8095
177.500000, 97.156, -55.0198
180.000000, 97.062, -55.2300
182.500000, 96.977, -55.3643
185.000000, 96.899, -55.5400
187.500000, 96.819, -55.6821
190.000000, 96.735, -55.8657
192.500000, 96.654, -56.0761
195.000000, 96.577, -56.2002
197.500000, 96.505, -56.2929
200.000000, 96.433, -56.3881
203.000000, 96.343, -56.5340
206.000000, 96.258, -56.6795
209.000000, 96.177, -56.8473
212.000000, 96.097, -57.0158
214.000000, 96.042, -57.1110
218.000000, 95.931, -57.2861
220.000000, 95.876, -57.3857
224.000000, 95.770, -57.5478
227.000000, 95.692, -57.6614
230.000000, 95.614, -57.7757
233.000000, 95.536, -57.8797
236.000000, 95.462, -58.0028
240.000000, 95.367, -58.1487
243.000000, 95.299, -58.2014
247.000000, 95.210, -58.2815
250.000000, 95.144, -58.3639
254.000000, 95.054, -58.4667
258.000000, 94.966, -58.5533
262.000000, 94.881, -58.6473
265.000000, 94.818, -58.7032
269.000000, 94.735, -58.7702
272.000000, 94.675, -58.8168
276.000000, 94.598, -58.8920
280.000000, 94.525, -58.9609
285.000000, 94.438, -59.0360
290.000000, 94.354, -59.1078
295.000000, 94.271, -59.1619
300.000000, 94.190, -59.1829
304.000000, 94.125, -59.2481
307.000000, 94.077, -59.2834
311.000000, 94.016, -59.3191
315.000000, 93.957, -59.3546
320.000000, 93.885, -59.3918
325.000000, 93.814, -59.4028
330.000000, 93.743, -59.4260
335.000000, 93.675, -59.4383
340.000000, 93.608, -59.4428
345.000000, 93.542, -59.4247
350.000000, 93.477, -59.4191
355.000000, 93.414, -59.4276
360.000000, 93.353, -59.4250
365.000000, 93.293, -59.4112
370.000000, 93.234, -59.4032
375.000000, 93.176, -59.4005
382.000000, 93.099, -59.3631
387.000000, 93.044, -59.3266
395.000000, 92.959, -59.2635
400.000000, 92.909, -59.2488
406.000000, 92.850, -59.2372
412.000000, 92.789, -59.1857
418.000000, 92.728, -59.1176
425.000000, 92.660, -59.0297
431.000000, 92.607, -58.9619
437.000000, 92.557, -58.9330
444.000000, 92.500, -58.8667
450.000000, 92.453, -58.7968
455.000000, 92.414, -58.7178
462.000000, 92.361, -58.6193
468.000000, 92.319, -58.5633
475.000000, 92.275, -58.4558
482.000000, 92.231, -58.3259
487.000000, 92.201, -58.2472
494.000000, 92.162, -58.1208
500.000000, 92.132, -58.0142
508.000000, 92.094, -57.8654
515.000000, 92.060, -57.7324
522.000000, 92.029, -57.5935
530.000000, 91.996, -57.4206
538.000000, 91.965, -57.2485
545.000000, 91.940, -57.1017
552.000000, 91.919, -56.9384
560.000000, 91.897, -56.7350
570.000000, 91.871, -56.4732
580.000000, 91.848, -56.1885
590.000000, 91.828, -55.8988
600.000000, 91.810, -55.6306
608.000000, 91.796, -55.3658
615.000000, 91.785, -55.1295
622.000000, 91.776, -54.8865
630.000000, 91.768, -54.6188
640.000000, 91.761, -54.2564
650.000000, 91.759, -53.8808
660.000000, 91.763, -53.5006
670.000000, 91.770, -53.0989
680.000000, 91.782, -52.6904
690.000000, 91.799, -52.2537
700.000000, 91.823, -51.8256
710.000000, 91.857, -51.4014
720.000000, 91.895, -50.9881
730.000000, 91.938, -50.5736
740.000000, 91.987, -50.1713
750.000000, 92.041, -49.7745
762.000000, 92.110, -49.3276
775.000000, 92.190, -48.8916
788.000000, 92.272, -48.4665
800.000000, 92.350, -48.0991
812.000000, 92.432, -47.7610
825.000000, 92.524, -47.4104
838.000000, 92.618, -47.0834
850.000000, 92.705, -46.7952
862.000000, 92.793, -46.5104
875.000000, 92.890, -46.2130
885.000000, 92.970, -45.9980
900.000000, 93.096, -45.7143
912.000000, 93.200, -45.5019
925.000000, 93.311, -45.2833
938.000000, 93.421, -45.0729
950.000000, 93.523, -44.8970
962.000000, 93.626, -44.7517
975.000000, 93.736, -44.6108
988.000000, 93.845, -44.4728
1000.000000, 93.947, -44.3662
1015.000000, 94.075, -44.2640
1030.000000, 94.203, -44.1843
1044.000000, 94.323, -44.1361
1060.000000, 94.460, -44.1084
1075.000000, 94.588, -44.1010
1090.000000, 94.721, -44.1146
1106.000000, 94.870, -44.1463
1120.000000, 95.003, -44.1913
1138.000000, 95.171, -44.2744
1150.000000, 95.282, -44.3432
1172.000000, 95.481, -44.4684
1180.000000, 95.553, -44.5251
1206.000000, 95.784, -44.7209
1220.000000, 95.909, -44.8298
1241.000000, 96.098, -45.0115
1250.000000, 96.178, -45.0907
1265.000000, 96.311, -45.2127
1280.000000, 96.442, -45.3528
1315.000000, 96.743, -45.6783
1320.000000, 96.785, -45.7262
1340.000000, 96.944, -45.9186
1360.000000, 97.084, -46.1044
1380.000000, 97.222, -46.2974
1400.000000, 97.372, -46.4877
1430.000000, 97.602, -46.7875
1450.000000, 97.755, -46.9979
1475.000000, 97.945, -47.2782
1500.000000, 98.134, -47.5445
1525.000000, 98.316, -47.8105
1550.000000, 98.492, -48.0872
1575.000000, 98.665, -48.3727
1600.000000, 98.836, -48.6589
1625.000000, 99.006, -48.9762
1650.000000, 99.173, -49.3040
1675.000000, 99.338, -49.6488
1700.000000, 99.500, -50.0049
1725.000000, 99.658, -50.3798
1750.000000, 99.812, -50.7709
1775.000000, 99.963, -51.1901
1800.000000, 100.111, -51.6229
1825.000000, 100.254, -52.0691
1850.000000, 100.393, -52.5366
1875.000000, 100.526, -53.0165
1900.000000, 100.653, -53.5151
1925.000000, 100.774, -54.0235
1950.000000, 100.888, -54.5439
1975.000000, 100.996, -55.0697
2000.000000, 101.098, -55.6069
2030.000000, 101.212, -56.2488
2060.000000, 101.317, -56.8939
2090.000000, 101.414, -57.5345
2120.000000, 101.501, -58.1644
2140.000000, 101.554, -58.5750
2180.000000, 101.648, -59.3686
2200.000000, 101.688, -59.7550
2240.000000, 101.754, -60.4877
2270.000000, 101.794, -60.9941
2300.000000, 101.827, -61.4633
2330.000000, 101.853, -61.8906
2360.000000, 101.872, -62.2811
2400.000000, 101.889, -62.7344
2430.000000, 101.898, -63.0197
2470.000000, 101.904, -63.3312
2500.000000, 101.904, -63.5084
2540.000000, 101.901, -63.6769
2580.000000, 101.894, -63.7668
2620.000000, 101.886, -63.7824
2650.000000, 101.879, -63.7453
2690.000000, 101.870, -63.6409
2720.000000, 101.863, -63.5238
2760.000000, 101.855, -63.3126
2800.000000, 101.849, -63.0459
2850.000000, 101.845, -62.6453
2900.000000, 101.848, -62.1868
2950.000000, 101.857, -61.6792
3000.000000, 101.872, -61.1365
3040.000000, 101.889, -60.6882
3070.000000, 101.904, -60.3420
3110.000000, 101.928, -59.8793
3150.000000, 101.954, -59.4172
3200.000000, 101.991, -58.8435
3250.000000, 102.031, -58.2838
3300.000000, 102.072, -57.7402
3350.000000, 102.115, -57.2339
3400.000000, 102.158, -56.7574
3450.000000, 102.202, -56.3174
3500.000000, 102.247, -55.9166
3550.000000, 102.287, -55.5503
3600.000000, 102.320, -55.2175
3650.000000, 102.342, -54.9192
3700.000000, 102.353, -54.6374
3750.000000, 102.350, -54.3649
3820.000000, 102.318, -53.9839
3870.000000, 102.272, -53.6891
3950.000000, 102.155, -53.1079
4000.000000, 102.057, -52.6372
4060.000000, 101.918, -51.9199
4120.000000, 101.759, -51.0065
4180.000000, 101.584, -49.8693
4250.000000, 101.370, -48.2161
4310.000000, 101.180, -46.4901
4370.000000, 100.990, -44.4722
4440.000000, 100.783, -41.7442
4500.000000, 100.633, -39.0995
4550.000000, 100.534, -36.7008
4620.000000, 100.448, -33.0825
4680.000000, 100.433, -29.7934
4750.000000, 100.493, -25.8231
4820.000000, 100.647, -21.8420
4870.000000, 100.819, -19.0865
4940.000000, 101.146, -15.4895
5000.000000, 101.502, -12.8319
5080.000000, 102.049, -10.1492
5150.000000, 102.559, -8.7332
5220.000000, 103.052, -8.2640
5300.000000, 103.530, -8.8499
5380.000000, 103.846, -10.3653
5450.000000, 103.953, -12.0561
5520.000000, 103.898, -13.6731
5600.000000, 103.663, -15.0038
5700.000000, 103.196, -15.4208
5800.000000, 102.651, -14.3117
5900.000000, 102.121, -11.8389
6000.000000, 101.661, -8.3131
6080.000000, 101.361, -4.9259
6150.000000, 101.153, -1.6629
6220.000000, 100.998, 1.7981
6300.000000, 100.883, 5.9207
6400.000000, 100.827, 11.2043
6500.000000, 100.867, 16.5431
6600.000000, 100.996, 21.8065
6700.000000, 101.207, 26.9007
6800.000000, 101.502, 31.7835
6900.000000, 101.893, 36.3603
7000.000000, 102.373, 40.5270
7100.000000, 102.917, 44.1830
7200.000000, 103.503, 47.2294
7300.000000, 104.108, 49.5602
7400.000000, 104.703, 51.1252
7500.000000, 105.255, 51.9590
7620.000000, 105.843, 52.1692
7750.000000, 106.356, 51.7079
7880.000000, 106.643, 50.8168
8000.000000, 106.719, 49.8889
8120.000000, 106.649, 49.1779
8250.000000, 106.440, 48.9211
8380.000000, 106.140, 49.3383
8500.000000, 105.818, 50.3475
8620.000000, 105.475, 51.8720
8750.000000, 105.091, 53.9898
8850.000000, 104.792, 55.8660
9000.000000, 104.335, 58.9944
9120.000000, 103.959, 61.7548
9250.000000, 103.533, 65.0561
9380.000000, 103.092, 68.7857
9500.000000, 102.680, 72.6898
9620.000000, 102.284, 77.0809
9750.000000, 101.899, 82.3810
9880.000000, 101.583, 88.1816
10000.000000, 101.363, 93.8887
10150.000000, 101.200, 101.3334
10300.000000, 101.168, 108.9201
10440.000000, 101.256, 115.9345
10600.000000, 101.488, 123.6958
10750.000000, 101.830, 130.5758
10900.000000, 102.288, 136.9006
11060.000000, 102.883, 142.7799
11200.000000, 103.461, 147.1029
11380.000000, 104.270, 151.6335
11500.000000, 104.864, 153.8577
11720.000000, 105.981, 155.4464
11800.000000, 106.351, 155.1861
12060.000000, 107.260, 151.6747
12200.000000, 107.493, 148.4997
12410.000000, 107.437, 142.8460
12500.000000, 107.260, 140.3186
12650.000000, 106.767, 136.2359
12800.000000, 106.039, 132.5767
13150.000000, 103.541, 127.2637
13200.000000, 103.110, 126.9991
13400.000000, 101.255, 127.3960
13600.000000, 99.273, 130.2439
13800.000000, 97.262, 135.4816
14000.000000, 95.305, 142.9567
14300.000000, 92.571, 157.8229
14500.000000, 90.927, 170.0897
14750.000000, 89.224, -171.6481
15000.000000, 88.241, -151.1768
15250.000000, 88.101, -132.9498
15500.000000, 88.251, -119.5511
15750.000000, 88.396, -108.4012
16000.000000, 88.363, -97.2693
16250.000000, 88.614, -84.6714
16500.000000, 88.757, -75.3521
16750.000000, 88.386, -64.4792
17000.000000, 88.176, -50.5523
17250.000000, 88.673, -34.8464
17500.000000, 90.005, -22.9030
17750.000000, 91.314, -17.3629
18000.000000, 92.381, -14.4706
18250.000000, 93.298, -13.9490
18500.000000, 93.891, -16.0356
18750.000000, 93.990, -19.6725
19000.000000, 93.580, -23.3729
19250.000000, 92.739, -26.2281
19500.000000, 91.536, -27.9825
19750.000000, 90.023, -28.5614
20000.000000, 88.172, -27.6899
20300.000000, 85.536, -24.1976
20600.000000, 82.676, -17.7256
20900.000000, 79.715, -8.5197
21200.000000, 76.682, 2.8788
21400.000000, 74.614, 11.4241
21800.000000, 70.298, 30.2784
22000.000000, 68.009, 40.3383
22400.000000, 63.031, 60.8549
22700.000000, 58.773, 75.7977
23000.000000, 53.870, 89.6936
23300.000000, 48.189, 102.2480
23600.000000, 41.868, 112.9767
24000.000000, 35.485, 129.6235
