* Measurement data measured by REW V5.31.3
* Source: USB-C to 3.5mm Headphone Jack Adapter, USB-C to 3.5mm Headphone Jack Adapter, 0, volume: 0.264
* Format: 256k Log Swept Sine, 1 sweep at -12.0 dBFS with no timing reference
* Dated: Feb 24, 2025 12:13:34 AM
* REW Settings:
*  C-weighting compensation: Off
*  Target level: 75.0 dB
* Note: ; 
* Measurement: Epic Audio Enceph L
* Smoothing: 1/24 octave
* Frequency Step: 1/48 octave
* Start Frequency: 1.000 Hz
*
* Freq(Hz), SPL(dB), Phase(degrees)
1.000000, 46.385, 77.1537
1.015000, 46.457, 76.9955
1.030000, 46.528, 76.8498
1.044000, 46.593, 76.7255
1.060000, 46.666, 76.5978
1.075000, 46.735, 76.4925
1.090000, 46.803, 76.4011
1.106000, 46.875, 76.3164
1.120000, 46.936, 76.2482
1.138000, 47.010, 76.1650
1.150000, 47.057, 76.1124
1.172000, 47.137, 76.0225
1.180000, 47.165, 75.9922
1.206000, 47.251, 75.9034
1.220000, 47.293, 75.8624
1.241000, 47.354, 75.8109
1.250000, 47.379, 75.7928
1.265000, 47.420, 75.7683
1.280000, 47.458, 75.7513
1.315000, 47.543, 75.7434
1.320000, 47.555, 75.7461
1.340000, 47.600, 75.7677
1.360000, 47.645, 75.8069
1.380000, 47.689, 75.8649
1.400000, 47.732, 75.9426
1.430000, 47.798, 76.0987
1.450000, 47.843, 76.2303
1.475000, 47.899, 76.4249
1.500000, 47.952, 76.6479
1.525000, 48.001, 76.8963
1.550000, 48.046, 77.1695
1.575000, 48.088, 77.4669
1.600000, 48.129, 77.7880
1.625000, 48.167, 78.1325
1.650000, 48.206, 78.4997
1.675000, 48.245, 78.8890
1.700000, 48.285, 79.2995
1.725000, 48.327, 79.7306
1.750000, 48.372, 80.1812
1.775000, 48.420, 80.6503
1.800000, 48.473, 81.1368
1.825000, 48.531, 81.6407
1.850000, 48.592, 82.1660
1.875000, 48.657, 82.7174
1.900000, 48.723, 83.2940
1.925000, 48.791, 83.8919
1.950000, 48.862, 84.5069
1.975000, 48.934, 85.1346
2.000000, 49.009, 85.7708
2.030000, 49.103, 86.5394
2.060000, 49.200, 87.3066
2.090000, 49.302, 88.0652
2.120000, 49.407, 88.8080
2.140000, 49.481, 89.2912
2.180000, 49.633, 90.2215
2.200000, 49.713, 90.6695
2.240000, 49.882, 91.5512
2.270000, 50.016, 92.2072
2.300000, 50.156, 92.8541
2.330000, 50.301, 93.4860
2.360000, 50.449, 94.0973
2.400000, 50.652, 94.8711
2.430000, 50.806, 95.4146
2.470000, 51.012, 96.0824
2.500000, 51.167, 96.5361
2.540000, 51.371, 97.0734
2.580000, 51.573, 97.5369
2.620000, 51.777, 97.9441
2.650000, 51.933, 98.2184
2.690000, 52.141, 98.5434
2.720000, 52.298, 98.7566
2.760000, 52.507, 99.0000
2.800000, 52.714, 99.1970
2.850000, 52.967, 99.3787
2.900000, 53.211, 99.4895
2.950000, 53.444, 99.5302
3.000000, 53.671, 99.5042
3.040000, 53.848, 99.4414
3.070000, 53.978, 99.3734
3.110000, 54.148, 99.2589
3.150000, 54.313, 99.1217
3.200000, 54.513, 98.9247
3.250000, 54.704, 98.7062
3.300000, 54.887, 98.4686
3.350000, 55.061, 98.2031
3.400000, 55.227, 97.9057
3.450000, 55.384, 97.5852
3.500000, 55.534, 97.2522
3.550000, 55.677, 96.9169
3.600000, 55.815, 96.5885
3.650000, 55.948, 96.2731
3.700000, 56.075, 95.9671
3.750000, 56.195, 95.6612
3.820000, 56.353, 95.2330
3.870000, 56.459, 94.9328
3.950000, 56.624, 94.4747
4.000000, 56.724, 94.2086
4.060000, 56.843, 93.9134
4.120000, 56.958, 93.6411
4.180000, 57.069, 93.3859
4.250000, 57.195, 93.1032
4.310000, 57.303, 92.8688
4.370000, 57.412, 92.6391
4.440000, 57.543, 92.3816
4.500000, 57.655, 92.1756
4.550000, 57.749, 92.0098
4.620000, 57.882, 91.7742
4.680000, 57.997, 91.5574
4.750000, 58.132, 91.2766
4.820000, 58.270, 90.9695
4.870000, 58.370, 90.7404
4.940000, 58.512, 90.4028
5.000000, 58.633, 90.0913
5.080000, 58.792, 89.6330
5.150000, 58.929, 89.1846
5.220000, 59.064, 88.6945
5.300000, 59.216, 88.0928
5.380000, 59.363, 87.4552
5.450000, 59.487, 86.8724
5.520000, 59.603, 86.2643
5.600000, 59.729, 85.5307
5.700000, 59.875, 84.5737
5.800000, 60.009, 83.6130
5.900000, 60.128, 82.6710
6.000000, 60.231, 81.7294
6.080000, 60.305, 80.9876
6.150000, 60.365, 80.3663
6.220000, 60.420, 79.7834
6.300000, 60.477, 79.1621
6.400000, 60.540, 78.4407
6.500000, 60.598, 77.7894
6.600000, 60.658, 77.2262
6.700000, 60.719, 76.7584
6.800000, 60.782, 76.3715
6.900000, 60.851, 76.0437
7.000000, 60.933, 75.7669
7.100000, 61.025, 75.5468
7.200000, 61.128, 75.3577
7.300000, 61.242, 75.1604
7.400000, 61.368, 74.9433
7.500000, 61.506, 74.7113
7.620000, 61.682, 74.3810
7.750000, 61.880, 73.9181
7.880000, 62.086, 73.3530
8.000000, 62.276, 72.7427
8.120000, 62.461, 72.0392
8.250000, 62.655, 71.1797
8.380000, 62.838, 70.2460
8.500000, 62.995, 69.3294
8.620000, 63.139, 68.3638
8.750000, 63.280, 67.2905
8.850000, 63.377, 66.4573
9.000000, 63.505, 65.1945
9.120000, 63.591, 64.1952
9.250000, 63.668, 63.1372
9.380000, 63.729, 62.1063
9.500000, 63.771, 61.1998
9.620000, 63.799, 60.3456
9.750000, 63.815, 59.4837
9.880000, 63.816, 58.7164
10.000000, 63.804, 58.1053
10.150000, 63.776, 57.4831
10.300000, 63.740, 57.0571
10.440000, 63.701, 56.8507
10.600000, 63.664, 56.8369
10.750000, 63.646, 57.0427
10.900000, 63.651, 57.4209
11.060000, 63.695, 57.9332
11.200000, 63.770, 58.4294
11.380000, 63.914, 58.9781
11.500000, 64.038, 59.2337
11.720000, 64.305, 59.3657
11.800000, 64.408, 59.2763
12.060000, 64.741, 58.5067
12.200000, 64.900, 57.8085
12.410000, 65.098, 56.4883
12.500000, 65.164, 55.8637
12.650000, 65.247, 54.7722
12.800000, 65.297, 53.6879
13.150000, 65.328, 51.4648
13.200000, 65.328, 51.2010
13.400000, 65.318, 50.3006
13.600000, 65.317, 49.6056
13.800000, 65.342, 49.0527
14.000000, 65.399, 48.5073
14.300000, 65.532, 47.4907
14.500000, 65.631, 46.5780
14.750000, 65.734, 45.2014
15.000000, 65.793, 43.6809
15.250000, 65.800, 42.2256
15.500000, 65.769, 41.0224
15.750000, 65.731, 40.1702
16.000000, 65.719, 39.6489
16.250000, 65.757, 39.2890
16.500000, 65.843, 38.8837
16.750000, 65.957, 38.2699
17.000000, 66.061, 37.4383
17.250000, 66.126, 36.4574
17.500000, 66.137, 35.5233
17.750000, 66.101, 34.8660
18.000000, 66.044, 34.6428
18.250000, 66.008, 34.9015
18.500000, 66.032, 35.5197
18.750000, 66.137, 36.2481
19.000000, 66.318, 36.8060
19.250000, 66.547, 36.9702
19.500000, 66.786, 36.6634
19.750000, 67.005, 35.9144
20.000000, 67.179, 34.8245
20.299999, 67.314, 33.2409
20.600000, 67.365, 31.5437
20.900000, 67.334, 29.9075
21.200001, 67.228, 28.4998
21.400000, 67.121, 27.7764
21.799999, 66.860, 27.0606
22.000000, 66.733, 27.1225
22.400000, 66.566, 27.9564
22.700001, 66.568, 28.8077
23.000000, 66.678, 29.3553
23.299999, 66.848, 29.2681
23.600000, 67.008, 28.4879
24.000000, 67.112, 26.7605
24.299999, 67.086, 25.4192
24.700001, 66.963, 24.1951
25.000000, 66.875, 23.8595
25.400000, 66.861, 23.8805
25.799999, 66.983, 23.7056
26.200001, 67.149, 22.7962
26.500000, 67.232, 21.6899
26.900000, 67.241, 20.1016
27.200001, 67.182, 19.1708
27.600000, 67.080, 18.5673
28.000000, 67.038, 18.5712
28.500000, 67.122, 18.6691
29.000000, 67.272, 18.1334
29.500000, 67.364, 17.0269
30.000000, 67.361, 15.9306
30.400000, 67.328, 15.3284
30.700001, 67.308, 15.0298
31.100000, 67.300, 14.7180
31.500000, 67.306, 14.3892
32.000000, 67.313, 13.9291
32.500000, 67.317, 13.5166
33.000000, 67.341, 13.1689
33.500000, 67.395, 12.7319
34.000000, 67.457, 12.0681
34.500000, 67.497, 11.2219
35.000000, 67.502, 10.3658
35.500000, 67.484, 9.6347
36.000000, 67.460, 9.0509
36.500000, 67.436, 8.5731
37.000000, 67.409, 8.1809
37.500000, 67.380, 7.8968
38.200001, 67.358, 7.6810
38.700001, 67.368, 7.5298
39.500000, 67.406, 6.9964
40.000000, 67.415, 6.5286
40.599998, 67.422, 5.9767
41.200001, 67.450, 5.2960
41.799999, 67.466, 4.2552
42.500000, 67.382, 2.9751
43.099998, 67.263, 2.5280
43.700001, 67.228, 2.6324
44.400002, 67.317, 2.3667
45.000000, 67.365, 1.4764
45.500000, 67.326, 0.7328
46.200001, 67.227, 0.4009
46.799999, 67.210, 0.5748
47.500000, 67.267, 0.4485
48.200001, 67.284, -0.2033
48.700001, 67.244, -0.6396
49.400002, 67.176, -0.9134
50.000000, 67.159, -1.0969
50.799999, 67.145, -1.7709
51.500000, 67.085, -2.4287
52.200001, 67.048, -2.8529
53.000000, 67.074, -3.6955
53.799999, 67.036, -4.9765
54.500000, 66.945, -5.5759
55.200001, 66.936, -5.6497
56.000000, 67.021, -6.0656
57.000000, 67.060, -7.0254
58.000000, 67.061, -7.4875
59.000000, 67.070, -8.0145
60.000000, 66.995, -8.4596
60.799999, 66.930, -8.4365
61.500000, 66.911, -8.4196
62.200001, 66.906, -8.6598
63.000000, 66.881, -9.2066
64.000000, 66.816, -9.9350
65.000000, 66.751, -10.5327
66.000000, 66.702, -11.0627
67.000000, 66.654, -11.5158
68.000000, 66.605, -11.7678
69.000000, 66.572, -11.8923
70.000000, 66.543, -12.0941
71.000000, 66.503, -12.3614
72.000000, 66.472, -12.6577
73.000000, 66.466, -13.1996
74.000000, 66.453, -14.0868
75.000000, 66.406, -15.1025
76.199997, 66.300, -16.0527
77.500000, 66.197, -16.3238
78.800003, 66.173, -16.3858
80.000000, 66.161, -16.6629
81.199997, 66.120, -17.1200
82.500000, 66.038, -17.6326
83.800003, 65.950, -18.0375
85.000000, 65.898, -18.3927
86.199997, 65.870, -18.9090
87.500000, 65.831, -19.5784
88.500000, 65.789, -19.9797
90.000000, 65.737, -20.2686
91.199997, 65.716, -20.2815
92.500000, 65.706, -20.2533
93.800003, 65.679, -20.2259
95.000000, 65.629, -20.2223
96.199997, 65.549, -20.3269
97.500000, 65.432, -20.5790
98.800003, 65.308, -20.9489
100.000000, 65.215, -21.3775
101.500000, 65.149, -21.9790
103.000000, 65.124, -22.4550
104.400002, 65.114, -22.6391
106.000000, 65.086, -22.5962
107.500000, 65.023, -22.5435
109.000000, 64.926, -22.6543
110.599998, 64.821, -22.9694
112.000000, 64.757, -23.3911
113.800003, 64.705, -23.8874
115.000000, 64.678, -24.0521
117.199997, 64.612, -24.1012
118.000000, 64.578, -24.1169
120.599998, 64.448, -24.4002
122.000000, 64.385, -24.6582
124.099998, 64.316, -24.9935
125.000000, 64.291, -25.0742
126.500000, 64.244, -25.1427
128.000000, 64.188, -25.1947
131.500000, 64.031, -25.4985
132.000000, 64.010, -25.5406
134.000000, 63.938, -25.6512
136.000000, 63.874, -25.6778
138.000000, 63.801, -25.6392
140.000000, 63.721, -25.6410
143.000000, 63.610, -25.7481
145.000000, 63.551, -25.8343
147.500000, 63.483, -25.8690
150.000000, 63.418, -25.8672
152.500000, 63.354, -25.9139
155.000000, 63.292, -26.0049
157.500000, 63.235, -26.0682
160.000000, 63.180, -26.1829
162.500000, 63.117, -26.3134
165.000000, 63.058, -26.4489
167.500000, 62.993, -26.6059
170.000000, 62.921, -26.7347
172.500000, 62.849, -26.8633
175.000000, 62.773, -26.9911
177.500000, 62.694, -27.0837
180.000000, 62.614, -27.1512
182.500000, 62.534, -27.1943
185.000000, 62.455, -27.2164
187.500000, 62.380, -27.2228
190.000000, 62.307, -27.2182
192.500000, 62.232, -27.1837
195.000000, 62.155, -27.1218
197.500000, 62.079, -27.0470
200.000000, 62.007, -26.9770
203.000000, 61.921, -26.8710
206.000000, 61.836, -26.7458
209.000000, 61.752, -26.5984
212.000000, 61.672, -26.4036
214.000000, 61.623, -26.2698
218.000000, 61.534, -26.0475
220.000000, 61.494, -25.9337
224.000000, 61.418, -25.7173
227.000000, 61.361, -25.5838
230.000000, 61.304, -25.4926
233.000000, 61.243, -25.3965
236.000000, 61.180, -25.2650
240.000000, 61.095, -25.0791
243.000000, 61.033, -24.9238
247.000000, 60.953, -24.6965
250.000000, 60.894, -24.5258
254.000000, 60.816, -24.2752
258.000000, 60.745, -23.9770
262.000000, 60.681, -23.7097
265.000000, 60.636, -23.5398
269.000000, 60.578, -23.2998
272.000000, 60.532, -23.1244
276.000000, 60.470, -22.9033
280.000000, 60.405, -22.6904
285.000000, 60.321, -22.3959
290.000000, 60.238, -22.0708
295.000000, 60.162, -21.7319
300.000000, 60.089, -21.3823
304.000000, 60.032, -21.0951
307.000000, 59.990, -20.8817
311.000000, 59.935, -20.5934
315.000000, 59.880, -20.3010
320.000000, 59.815, -19.9267
325.000000, 59.752, -19.5233
330.000000, 59.690, -19.0940
335.000000, 59.630, -18.6742
340.000000, 59.572, -18.2617
345.000000, 59.517, -17.8532
350.000000, 59.466, -17.4580
355.000000, 59.420, -17.0616
360.000000, 59.376, -16.6631
365.000000, 59.333, -16.2656
370.000000, 59.291, -15.8546
375.000000, 59.250, -15.4395
382.000000, 59.193, -14.8640
387.000000, 59.156, -14.4515
395.000000, 59.098, -13.7937
400.000000, 59.065, -13.3838
406.000000, 59.028, -12.8904
412.000000, 58.993, -12.4073
418.000000, 58.960, -11.9282
425.000000, 58.923, -11.3601
431.000000, 58.893, -10.8743
437.000000, 58.866, -10.3930
444.000000, 58.838, -9.8450
450.000000, 58.816, -9.3819
455.000000, 58.799, -8.9889
462.000000, 58.778, -8.4422
468.000000, 58.761, -7.9825
475.000000, 58.743, -7.4426
482.000000, 58.728, -6.9108
487.000000, 58.718, -6.5416
494.000000, 58.706, -6.0239
500.000000, 58.696, -5.5737
508.000000, 58.684, -4.9744
515.000000, 58.677, -4.4705
522.000000, 58.671, -3.9746
530.000000, 58.668, -3.4189
538.000000, 58.665, -2.8776
545.000000, 58.662, -2.4004
552.000000, 58.660, -1.9140
560.000000, 58.660, -1.3644
570.000000, 58.664, -0.6823
580.000000, 58.671, -0.0364
590.000000, 58.682, 0.5910
600.000000, 58.696, 1.2134
608.000000, 58.707, 1.7147
615.000000, 58.717, 2.1518
622.000000, 58.726, 2.5865
630.000000, 58.738, 3.0775
640.000000, 58.755, 3.6761
650.000000, 58.776, 4.2564
660.000000, 58.798, 4.8354
670.000000, 58.822, 5.4041
680.000000, 58.847, 5.9633
690.000000, 58.874, 6.5158
700.000000, 58.903, 7.0646
710.000000, 58.930, 7.6004
720.000000, 58.958, 8.1411
730.000000, 58.986, 8.6891
740.000000, 59.015, 9.2248
750.000000, 59.047, 9.7495
762.000000, 59.089, 10.3620
775.000000, 59.140, 10.9995
788.000000, 59.193, 11.6432
800.000000, 59.244, 12.2400
812.000000, 59.296, 12.8251
825.000000, 59.356, 13.4516
838.000000, 59.420, 14.0605
850.000000, 59.483, 14.6090
862.000000, 59.549, 15.1358
875.000000, 59.623, 15.6981
885.000000, 59.682, 16.1248
900.000000, 59.773, 16.7496
912.000000, 59.849, 17.2340
925.000000, 59.935, 17.7275
938.000000, 60.025, 18.1872
950.000000, 60.113, 18.5914
962.000000, 60.203, 18.9714
975.000000, 60.302, 19.3527
988.000000, 60.402, 19.7112
1000.000000, 60.496, 20.0187
1015.000000, 60.615, 20.3630
1030.000000, 60.734, 20.6585
1044.000000, 60.846, 20.8903
1060.000000, 60.975, 21.1075
1075.000000, 61.097, 21.2626
1090.000000, 61.217, 21.3725
1106.000000, 61.342, 21.4508
1120.000000, 61.449, 21.4847
1138.000000, 61.580, 21.4866
1150.000000, 61.663, 21.4660
1172.000000, 61.810, 21.3814
1180.000000, 61.861, 21.3393
1206.000000, 62.018, 21.1713
1220.000000, 62.098, 21.0640
1241.000000, 62.211, 20.8860
1250.000000, 62.258, 20.8055
1265.000000, 62.334, 20.6661
1280.000000, 62.408, 20.5233
1315.000000, 62.567, 20.1814
1320.000000, 62.589, 20.1333
1340.000000, 62.673, 19.9440
1360.000000, 62.753, 19.7569
1380.000000, 62.830, 19.5853
1400.000000, 62.904, 19.4229
1430.000000, 63.010, 19.1918
1450.000000, 63.078, 19.0467
1475.000000, 63.163, 18.8773
1500.000000, 63.249, 18.7111
1525.000000, 63.336, 18.5442
1550.000000, 63.425, 18.3824
1575.000000, 63.514, 18.2238
1600.000000, 63.603, 18.0622
1625.000000, 63.693, 17.8916
1650.000000, 63.784, 17.7116
1675.000000, 63.877, 17.5222
1700.000000, 63.971, 17.3190
1725.000000, 64.067, 17.0945
1750.000000, 64.166, 16.8500
1775.000000, 64.267, 16.5827
1800.000000, 64.369, 16.2862
1825.000000, 64.473, 15.9626
1850.000000, 64.579, 15.6105
1875.000000, 64.687, 15.2211
1900.000000, 64.795, 14.7950
1925.000000, 64.903, 14.3304
1950.000000, 65.010, 13.8205
1975.000000, 65.118, 13.2624
2000.000000, 65.224, 12.6559
2030.000000, 65.352, 11.8557
2060.000000, 65.478, 10.9651
2090.000000, 65.601, 9.9745
2120.000000, 65.719, 8.8788
2140.000000, 65.794, 8.0855
2180.000000, 65.930, 6.3294
2200.000000, 65.990, 5.3543
2240.000000, 66.088, 3.1882
2270.000000, 66.132, 1.3651
2300.000000, 66.139, -0.6164
2330.000000, 66.093, -2.7159
2360.000000, 65.981, -4.8500
2400.000000, 65.714, -7.5034
2430.000000, 65.427, -9.1014
2470.000000, 64.966, -10.3096
2500.000000, 64.611, -10.3716
2540.000000, 64.210, -9.4228
2580.000000, 63.961, -7.7710
2620.000000, 63.873, -6.0763
2650.000000, 63.885, -5.0618
2690.000000, 63.955, -4.1881
2720.000000, 64.021, -3.8760
2760.000000, 64.099, -3.8104
2800.000000, 64.153, -4.0045
2850.000000, 64.178, -4.4101
2900.000000, 64.163, -4.8202
2950.000000, 64.121, -5.1204
3000.000000, 64.066, -5.2364
3040.000000, 64.022, -5.1709
3070.000000, 63.994, -5.0306
3110.000000, 63.972, -4.7362
3150.000000, 63.972, -4.3415
3200.000000, 64.013, -3.7671
3250.000000, 64.104, -3.1959
3300.000000, 64.249, -2.7345
3350.000000, 64.443, -2.4981
3400.000000, 64.680, -2.6030
3450.000000, 64.943, -3.1464
3500.000000, 65.216, -4.1851
3550.000000, 65.481, -5.7399
3600.000000, 65.720, -7.8012
3650.000000, 65.911, -10.3229
3700.000000, 66.036, -13.2349
3750.000000, 66.082, -16.4307
3820.000000, 65.997, -21.0996
3870.000000, 65.829, -24.3743
3950.000000, 65.399, -29.1565
4000.000000, 65.052, -31.7335
4060.000000, 64.579, -34.3521
4120.000000, 64.062, -36.4302
4180.000000, 63.517, -37.9639
4250.000000, 62.869, -39.0902
4310.000000, 62.316, -39.5214
4370.000000, 61.777, -39.5129
4440.000000, 61.180, -39.0164
4500.000000, 60.702, -38.2363
4550.000000, 60.330, -37.3811
4620.000000, 59.853, -35.9413
4680.000000, 59.482, -34.5394
4750.000000, 59.090, -32.7609
4820.000000, 58.738, -30.8538
4870.000000, 58.509, -29.4227
4940.000000, 58.220, -27.3389
5000.000000, 58.001, -25.4880
5080.000000, 57.750, -22.9475
5150.000000, 57.571, -20.6810
5220.000000, 57.426, -18.4028
5300.000000, 57.301, -15.8175
5380.000000, 57.213, -13.2766
5450.000000, 57.163, -11.1049
5520.000000, 57.137, -8.9897
5600.000000, 57.132, -6.6397
5700.000000, 57.160, -3.7659
5800.000000, 57.223, -0.9436
5900.000000, 57.305, 1.9273
6000.000000, 57.429, 5.3506
6080.000000, 57.688, 8.7997
6150.000000, 58.130, 11.3658
6220.000000, 58.647, 12.3992
6300.000000, 59.131, 12.2847
6400.000000, 59.608, 11.6972
6500.000000, 60.044, 10.7412
6600.000000, 60.446, 9.1639
6700.000000, 60.779, 6.8723
6800.000000, 60.997, 3.9582
6900.000000, 61.063, 0.6869
7000.000000, 60.969, -2.5563
7100.000000, 60.736, -5.4798
7200.000000, 60.380, -7.8935
7300.000000, 59.930, -9.5698
7400.000000, 59.429, -10.4336
7500.000000, 58.908, -10.4948
7620.000000, 58.299, -9.5835
7750.000000, 57.698, -7.5673
7880.000000, 57.188, -4.7099
8000.000000, 56.812, -1.5216
8120.000000, 56.531, 2.0489
8250.000000, 56.339, 6.2019
8380.000000, 56.264, 10.5101
8500.000000, 56.301, 14.5095
8620.000000, 56.441, 18.4258
8750.000000, 56.710, 22.4456
8850.000000, 57.000, 25.2814
9000.000000, 57.565, 28.9081
9120.000000, 58.120, 31.0635
9250.000000, 58.805, 32.3833
9380.000000, 59.537, 32.3937
9500.000000, 60.197, 31.0742
9620.000000, 60.771, 28.4665
9750.000000, 61.214, 24.4377
9880.000000, 61.409, 19.7127
10000.000000, 61.353, 15.3706
10150.000000, 61.023, 10.7910
10300.000000, 60.521, 7.6772
10440.000000, 60.018, 6.1128
10600.000000, 59.506, 5.4890
10750.000000, 59.133, 5.4396
10900.000000, 58.854, 5.3540
11060.000000, 58.610, 4.8341
11200.000000, 58.383, 3.9407
11380.000000, 58.007, 2.4547
11500.000000, 57.691, 1.5063
11720.000000, 57.013, 0.3058
11800.000000, 56.752, 0.0714
12060.000000, 55.904, -0.2002
12200.000000, 55.446, -0.2122
12410.000000, 54.723, -0.1378
12500.000000, 54.392, -0.0259
12650.000000, 53.809, 0.3751
12800.000000, 53.194, 1.1716
13150.000000, 51.748, 5.0979
13200.000000, 51.553, 5.9031
13400.000000, 50.836, 9.6687
13600.000000, 50.249, 14.1520
13800.000000, 49.821, 19.1030
14000.000000, 49.571, 24.2830
14300.000000, 49.567, 32.0740
14500.000000, 49.852, 36.9592
14750.000000, 50.565, 42.0532
15000.000000, 51.727, 45.4410
15250.000000, 53.405, 45.6822
15500.000000, 55.498, 40.5553
15750.000000, 57.564, 27.9866
16000.000000, 58.876, 8.4495
16250.000000, 58.984, -13.8015
16500.000000, 58.231, -34.1301
16750.000000, 57.374, -52.5007
17000.000000, 56.819, -72.5257
17250.000000, 56.010, -97.8698
17500.000000, 54.072, -126.4000
17750.000000, 50.504, -151.7667
18000.000000, 45.864, -169.0594
18250.000000, 41.199, 179.1245
18500.000000, 36.934, 168.8033
18750.000000, 32.938, 158.2020
19000.000000, 29.042, 146.7459
19250.000000, 25.228, 133.2935
19500.000000, 21.498, 115.9123
19750.000000, 17.808, 93.1145
20000.000000, 14.910, 68.8026
