* Measurement data measured by REW V5.31.3
* Source: USB-C to 3.5mm Headphone Jack Adapter, USB-C to 3.5mm Headphone Jack Adapter, 0, volume: 0.264
* Format: 256k Log Swept Sine, 1 sweep at -12.0 dBFS with no timing reference
* Dated: Feb 24, 2025 12:12:14 AM
* REW Settings:
*  C-weighting compensation: Off
*  Target level: 75.0 dB
* Note: ; 
* Measurement: Epic Audio Enceph R
* Smoothing: 1/24 octave
* Frequency Step: 1/48 octave
* Start Frequency: 1.000 Hz
*
* Freq(Hz), SPL(dB), Phase(degrees)
1.000000, 53.046, 106.0489
1.015000, 53.100, 105.8063
1.030000, 53.154, 105.5908
1.044000, 53.206, 105.4148
1.060000, 53.267, 105.2445
1.075000, 53.326, 105.1156
1.090000, 53.387, 105.0173
1.106000, 53.454, 104.9477
1.120000, 53.512, 104.9180
1.138000, 53.588, 104.9208
1.150000, 53.638, 104.9464
1.172000, 53.730, 105.0374
1.180000, 53.763, 105.0834
1.206000, 53.873, 105.2744
1.220000, 53.933, 105.4003
1.241000, 54.023, 105.6143
1.250000, 54.062, 105.7139
1.265000, 54.128, 105.8885
1.280000, 54.195, 106.0720
1.315000, 54.356, 106.5223
1.320000, 54.380, 106.5880
1.340000, 54.476, 106.8508
1.360000, 54.575, 107.1102
1.380000, 54.677, 107.3613
1.400000, 54.782, 107.5995
1.430000, 54.948, 107.9229
1.450000, 55.063, 108.1114
1.475000, 55.215, 108.3253
1.500000, 55.373, 108.5493
1.525000, 55.540, 108.7940
1.550000, 55.713, 109.0511
1.575000, 55.892, 109.3109
1.600000, 56.076, 109.5644
1.625000, 56.264, 109.8030
1.650000, 56.455, 110.0193
1.675000, 56.649, 110.2063
1.700000, 56.844, 110.3578
1.725000, 57.039, 110.4683
1.750000, 57.234, 110.5330
1.775000, 57.428, 110.5475
1.800000, 57.620, 110.5084
1.825000, 57.810, 110.4159
1.850000, 57.999, 110.2838
1.875000, 58.189, 110.1315
1.900000, 58.382, 109.9646
1.925000, 58.577, 109.7816
1.950000, 58.773, 109.5806
1.975000, 58.969, 109.3595
2.000000, 59.164, 109.1163
2.030000, 59.398, 108.7928
2.060000, 59.628, 108.4320
2.090000, 59.854, 108.0308
2.120000, 60.076, 107.5865
2.140000, 60.220, 107.2648
2.180000, 60.498, 106.5570
2.200000, 60.632, 106.1701
2.240000, 60.894, 105.3371
2.270000, 61.085, 104.6693
2.300000, 61.272, 103.9717
2.330000, 61.455, 103.2499
2.360000, 61.632, 102.5082
2.400000, 61.862, 101.4948
2.430000, 62.028, 100.7199
2.470000, 62.240, 99.6709
2.500000, 62.393, 98.8735
2.540000, 62.586, 97.7958
2.580000, 62.768, 96.6892
2.620000, 62.939, 95.5287
2.650000, 63.060, 94.6228
2.690000, 63.213, 93.3806
2.720000, 63.321, 92.4329
2.760000, 63.456, 91.1607
2.800000, 63.581, 89.8915
2.850000, 63.723, 88.3277
2.900000, 63.850, 86.8044
2.950000, 63.961, 85.3080
3.000000, 64.055, 83.7763
3.040000, 64.119, 82.5164
3.070000, 64.160, 81.5598
3.110000, 64.207, 80.2817
3.150000, 64.244, 79.0147
3.200000, 64.277, 77.4705
3.250000, 64.296, 75.9965
3.300000, 64.301, 74.6036
3.350000, 64.291, 73.2498
3.400000, 64.264, 71.8969
3.450000, 64.224, 70.5535
3.500000, 64.170, 69.2418
3.550000, 64.104, 67.9877
3.600000, 64.028, 66.8197
3.650000, 63.943, 65.7621
3.700000, 63.846, 64.8121
3.750000, 63.734, 63.9429
3.820000, 63.556, 62.8487
3.870000, 63.420, 62.1637
3.950000, 63.197, 61.2675
4.000000, 63.060, 60.8562
4.060000, 62.898, 60.5449
4.120000, 62.729, 60.4509
4.180000, 62.555, 60.5613
4.250000, 62.361, 60.9100
4.310000, 62.215, 61.3582
4.370000, 62.099, 61.9126
4.440000, 62.004, 62.7126
4.500000, 61.952, 63.5755
4.550000, 61.927, 64.3944
4.620000, 61.921, 65.6034
4.680000, 61.944, 66.6089
4.750000, 62.007, 67.6523
4.820000, 62.115, 68.5582
4.870000, 62.220, 69.1510
4.940000, 62.399, 69.8800
5.000000, 62.569, 70.3688
5.080000, 62.804, 70.7620
5.150000, 63.009, 70.8345
5.220000, 63.220, 70.6780
5.300000, 63.470, 70.2697
5.380000, 63.716, 69.6557
5.450000, 63.917, 68.9698
5.520000, 64.099, 68.1428
5.600000, 64.287, 67.0084
5.700000, 64.495, 65.3735
5.800000, 64.670, 63.6270
5.900000, 64.805, 61.8305
6.000000, 64.900, 59.9201
6.080000, 64.950, 58.3423
6.150000, 64.977, 56.9823
6.220000, 64.988, 55.6748
6.300000, 64.980, 54.2291
6.400000, 64.941, 52.4546
6.500000, 64.875, 50.7686
6.600000, 64.791, 49.2529
6.700000, 64.686, 47.9188
6.800000, 64.562, 46.7422
6.900000, 64.432, 45.7386
7.000000, 64.303, 44.9409
7.100000, 64.173, 44.3630
7.200000, 64.046, 43.9768
7.300000, 63.935, 43.7461
7.400000, 63.844, 43.6705
7.500000, 63.772, 43.7547
7.620000, 63.715, 43.9853
7.750000, 63.695, 44.2936
7.880000, 63.721, 44.6535
8.000000, 63.776, 44.9558
8.120000, 63.858, 45.1540
8.250000, 63.975, 45.2510
8.380000, 64.110, 45.1948
8.500000, 64.241, 44.9771
8.620000, 64.378, 44.6098
8.750000, 64.523, 44.0559
8.850000, 64.627, 43.5194
9.000000, 64.770, 42.5477
9.120000, 64.866, 41.6643
9.250000, 64.947, 40.6169
9.380000, 65.004, 39.4900
9.500000, 65.030, 38.4345
9.620000, 65.028, 37.3851
9.750000, 64.995, 36.2704
9.880000, 64.930, 35.2567
10.000000, 64.841, 34.4468
10.150000, 64.696, 33.6352
10.300000, 64.523, 33.1568
10.440000, 64.342, 33.0620
10.600000, 64.137, 33.3979
10.750000, 63.969, 34.1858
10.900000, 63.842, 35.3805
11.060000, 63.785, 36.9583
11.200000, 63.810, 38.4987
11.380000, 63.945, 40.3780
11.500000, 64.099, 41.4445
11.720000, 64.469, 42.7840
11.800000, 64.619, 43.0214
12.060000, 65.122, 42.9216
12.200000, 65.372, 42.3551
12.410000, 65.695, 40.9903
12.500000, 65.808, 40.2717
12.650000, 65.963, 38.9355
12.800000, 66.076, 37.5149
13.150000, 66.186, 34.2222
13.200000, 66.187, 33.7840
13.400000, 66.166, 32.1586
13.600000, 66.117, 30.7704
13.800000, 66.055, 29.6422
14.000000, 65.997, 28.7420
14.300000, 65.935, 27.7286
14.500000, 65.917, 27.1925
14.750000, 65.920, 26.5969
15.000000, 65.949, 26.0264
15.250000, 65.997, 25.4440
15.500000, 66.063, 24.8253
15.750000, 66.140, 24.1468
16.000000, 66.225, 23.3859
16.250000, 66.306, 22.5359
16.500000, 66.374, 21.6198
16.750000, 66.419, 20.6942
17.000000, 66.437, 19.8487
17.250000, 66.432, 19.1730
17.500000, 66.418, 18.7387
17.750000, 66.414, 18.5605
18.000000, 66.437, 18.5799
18.250000, 66.502, 18.6775
18.500000, 66.606, 18.6969
18.750000, 66.738, 18.5061
19.000000, 66.876, 18.0278
19.250000, 66.995, 17.2600
19.500000, 67.077, 16.2724
19.750000, 67.107, 15.1750
20.000000, 67.082, 14.1052
20.299999, 66.988, 13.0478
20.600000, 66.848, 12.4128
20.900000, 66.701, 12.2941
21.200001, 66.589, 12.6443
21.400000, 66.553, 13.0431
21.799999, 66.589, 13.8578
22.000000, 66.652, 14.1044
22.400000, 66.821, 14.0247
22.700001, 66.936, 13.4710
23.000000, 67.009, 12.6501
23.299999, 67.031, 11.7702
23.600000, 67.013, 11.0167
24.000000, 66.975, 10.3530
24.299999, 66.968, 10.0432
24.700001, 67.002, 9.6031
25.000000, 67.042, 9.0910
25.400000, 67.064, 8.1530
25.799999, 67.015, 7.1915
26.200001, 66.908, 6.5893
26.500000, 66.826, 6.4951
26.900000, 66.766, 6.7280
27.200001, 66.774, 6.9523
27.600000, 66.835, 7.0020
28.000000, 66.904, 6.6479
28.500000, 66.938, 5.8577
29.000000, 66.912, 5.0990
29.500000, 66.872, 4.5817
30.000000, 66.851, 4.2498
30.400000, 66.854, 4.0484
30.700001, 66.872, 3.9044
31.100000, 66.920, 3.6590
31.500000, 66.990, 3.2510
32.000000, 67.073, 2.4125
32.500000, 67.098, 1.3634
33.000000, 67.045, 0.5362
33.500000, 66.965, 0.2996
34.000000, 66.937, 0.5848
34.500000, 66.996, 0.9133
35.000000, 67.101, 0.8280
35.500000, 67.179, 0.2520
36.000000, 67.184, -0.5544
36.500000, 67.115, -1.2224
37.000000, 67.012, -1.5018
37.500000, 66.932, -1.4097
38.200001, 66.920, -1.2146
38.700001, 66.953, -1.4174
39.500000, 66.977, -2.2579
40.000000, 66.966, -2.8122
40.599998, 66.955, -3.4235
41.200001, 66.940, -4.0557
41.799999, 66.895, -4.5642
42.500000, 66.841, -4.6959
43.099998, 66.849, -4.6019
43.700001, 66.890, -4.7170
44.400002, 66.901, -5.1249
45.000000, 66.875, -5.4005
45.500000, 66.857, -5.5552
46.200001, 66.845, -5.9316
46.799999, 66.810, -6.4425
47.500000, 66.734, -6.9275
48.200001, 66.686, -7.2169
48.700001, 66.681, -7.5188
49.400002, 66.667, -8.1898
50.000000, 66.623, -8.7399
50.799999, 66.564, -9.0664
51.500000, 66.558, -9.1622
52.200001, 66.577, -9.3292
53.000000, 66.599, -9.6024
53.799999, 66.611, -10.0102
54.500000, 66.584, -10.4106
55.200001, 66.532, -10.5949
56.000000, 66.503, -10.6021
57.000000, 66.508, -10.9207
58.000000, 66.476, -11.4941
59.000000, 66.430, -11.9405
60.000000, 66.393, -12.3811
60.799999, 66.357, -12.7616
61.500000, 66.316, -13.0293
62.200001, 66.282, -13.1957
63.000000, 66.269, -13.4030
64.000000, 66.258, -13.9531
65.000000, 66.204, -14.5153
66.000000, 66.160, -14.7696
67.000000, 66.157, -15.1098
68.000000, 66.132, -15.6144
69.000000, 66.084, -15.9567
70.000000, 66.041, -16.1917
71.000000, 65.997, -16.4237
72.000000, 65.958, -16.6300
73.000000, 65.928, -16.9461
74.000000, 65.880, -17.3476
75.000000, 65.824, -17.5889
76.199997, 65.792, -17.8054
77.500000, 65.763, -18.2173
78.800003, 65.717, -18.5940
80.000000, 65.680, -18.9204
81.199997, 65.633, -19.2940
82.500000, 65.575, -19.6309
83.800003, 65.517, -19.9302
85.000000, 65.462, -20.1677
86.199997, 65.413, -20.4013
87.500000, 65.346, -20.7431
88.500000, 65.286, -20.8771
90.000000, 65.239, -21.1028
91.199997, 65.196, -21.4918
92.500000, 65.131, -21.8078
93.800003, 65.075, -21.9390
95.000000, 65.042, -22.0810
96.199997, 64.991, -22.3153
97.500000, 64.919, -22.4200
98.800003, 64.854, -22.5003
100.000000, 64.787, -22.6170
101.500000, 64.699, -22.7217
103.000000, 64.626, -22.8029
104.400002, 64.567, -22.9034
106.000000, 64.509, -22.9151
107.500000, 64.472, -22.8125
109.000000, 64.447, -22.6804
110.599998, 64.414, -22.5798
112.000000, 64.378, -22.3934
113.800003, 64.366, -22.1021
115.000000, 64.382, -21.9761
117.199997, 64.464, -22.0453
118.000000, 64.494, -22.2651
120.599998, 64.504, -23.2230
122.000000, 64.479, -23.6583
124.099998, 64.434, -24.3994
125.000000, 64.406, -24.7418
126.500000, 64.348, -25.2540
128.000000, 64.284, -25.6594
131.500000, 64.144, -26.3725
132.000000, 64.124, -26.4736
134.000000, 64.039, -26.8586
136.000000, 63.953, -27.1758
138.000000, 63.872, -27.4512
140.000000, 63.794, -27.6913
143.000000, 63.677, -27.9233
145.000000, 63.604, -27.9785
147.500000, 63.513, -28.0931
150.000000, 63.413, -28.2839
152.500000, 63.315, -28.4691
155.000000, 63.224, -28.6367
157.500000, 63.134, -28.7777
160.000000, 63.044, -28.8820
162.500000, 62.956, -28.9643
165.000000, 62.869, -29.0169
167.500000, 62.782, -29.0427
170.000000, 62.695, -29.0607
172.500000, 62.608, -29.0737
175.000000, 62.523, -29.0905
177.500000, 62.440, -29.1203
180.000000, 62.358, -29.1407
182.500000, 62.279, -29.1498
185.000000, 62.201, -29.1510
187.500000, 62.123, -29.1335
190.000000, 62.044, -29.0801
192.500000, 61.964, -28.9897
195.000000, 61.883, -28.8640
197.500000, 61.803, -28.7035
200.000000, 61.724, -28.5110
203.000000, 61.633, -28.2070
206.000000, 61.557, -27.8689
209.000000, 61.493, -27.5072
212.000000, 61.449, -27.1561
214.000000, 61.434, -26.9828
218.000000, 61.419, -26.8611
220.000000, 61.407, -26.9198
224.000000, 61.357, -27.1544
227.000000, 61.302, -27.3168
230.000000, 61.236, -27.4246
233.000000, 61.164, -27.4758
236.000000, 61.090, -27.4544
240.000000, 60.985, -27.3277
243.000000, 60.905, -27.2260
247.000000, 60.801, -27.0828
250.000000, 60.728, -26.9392
254.000000, 60.635, -26.7396
258.000000, 60.545, -26.5454
262.000000, 60.459, -26.3389
265.000000, 60.397, -26.1780
269.000000, 60.314, -25.9481
272.000000, 60.255, -25.7624
276.000000, 60.177, -25.5032
280.000000, 60.096, -25.2263
285.000000, 59.998, -24.8620
290.000000, 59.900, -24.4718
295.000000, 59.805, -24.0743
300.000000, 59.714, -23.6681
304.000000, 59.646, -23.3406
307.000000, 59.597, -23.0961
311.000000, 59.535, -22.7630
315.000000, 59.476, -22.4291
320.000000, 59.406, -22.0326
325.000000, 59.338, -21.6354
330.000000, 59.274, -21.2211
335.000000, 59.212, -20.7858
340.000000, 59.148, -20.3389
345.000000, 59.086, -19.8737
350.000000, 59.025, -19.4010
355.000000, 58.964, -18.9295
360.000000, 58.907, -18.4697
365.000000, 58.854, -18.0119
370.000000, 58.804, -17.5550
375.000000, 58.755, -17.0974
382.000000, 58.691, -16.4449
387.000000, 58.649, -15.9726
395.000000, 58.584, -15.2145
400.000000, 58.545, -14.7426
406.000000, 58.501, -14.1770
412.000000, 58.460, -13.6062
418.000000, 58.424, -13.0410
425.000000, 58.385, -12.3923
431.000000, 58.352, -11.8293
437.000000, 58.323, -11.2581
444.000000, 58.295, -10.6064
450.000000, 58.273, -10.0646
455.000000, 58.256, -9.6078
462.000000, 58.233, -8.9654
468.000000, 58.215, -8.4188
475.000000, 58.196, -7.7774
482.000000, 58.180, -7.1399
487.000000, 58.171, -6.6933
494.000000, 58.160, -6.0785
500.000000, 58.153, -5.5553
508.000000, 58.147, -4.8644
515.000000, 58.142, -4.2704
522.000000, 58.138, -3.6867
530.000000, 58.141, -3.0416
538.000000, 58.145, -2.3857
545.000000, 58.150, -1.8269
552.000000, 58.156, -1.2742
560.000000, 58.163, -0.6427
570.000000, 58.174, 0.1346
580.000000, 58.189, 0.8925
590.000000, 58.207, 1.6369
600.000000, 58.228, 2.3503
608.000000, 58.248, 2.9053
615.000000, 58.266, 3.3886
622.000000, 58.286, 3.8734
630.000000, 58.311, 4.4230
640.000000, 58.345, 5.0922
650.000000, 58.382, 5.7339
660.000000, 58.421, 6.3527
670.000000, 58.462, 6.9627
680.000000, 58.507, 7.5749
690.000000, 58.551, 8.1708
700.000000, 58.595, 8.7445
710.000000, 58.639, 9.3158
720.000000, 58.684, 9.8905
730.000000, 58.731, 10.4574
740.000000, 58.781, 11.0010
750.000000, 58.835, 11.5215
762.000000, 58.902, 12.1282
775.000000, 58.982, 12.7875
788.000000, 59.065, 13.4226
800.000000, 59.141, 13.9817
812.000000, 59.218, 14.5326
825.000000, 59.302, 15.1347
838.000000, 59.385, 15.7287
850.000000, 59.464, 16.2491
862.000000, 59.546, 16.7466
875.000000, 59.640, 17.2706
885.000000, 59.716, 17.6587
900.000000, 59.836, 18.2077
912.000000, 59.936, 18.6180
925.000000, 60.048, 19.0400
938.000000, 60.163, 19.4362
950.000000, 60.271, 19.7755
962.000000, 60.379, 20.0866
975.000000, 60.496, 20.3941
988.000000, 60.611, 20.6718
1000.000000, 60.717, 20.8994
1015.000000, 60.848, 21.1440
1030.000000, 60.979, 21.3391
1044.000000, 61.103, 21.4752
1060.000000, 61.246, 21.5723
1075.000000, 61.381, 21.6076
1090.000000, 61.516, 21.5953
1106.000000, 61.658, 21.5379
1120.000000, 61.778, 21.4567
1138.000000, 61.928, 21.3096
1150.000000, 62.024, 21.1819
1172.000000, 62.191, 20.8987
1180.000000, 62.249, 20.7830
1206.000000, 62.427, 20.3690
1220.000000, 62.516, 20.1264
1241.000000, 62.639, 19.7497
1250.000000, 62.688, 19.5853
1265.000000, 62.768, 19.3051
1280.000000, 62.844, 19.0168
1315.000000, 63.015, 18.3232
1320.000000, 63.038, 18.2241
1340.000000, 63.132, 17.8277
1360.000000, 63.223, 17.4311
1380.000000, 63.312, 17.0378
1400.000000, 63.398, 16.6435
1430.000000, 63.523, 16.0526
1450.000000, 63.602, 15.6687
1475.000000, 63.694, 15.2046
1500.000000, 63.782, 14.7429
1525.000000, 63.869, 14.2685
1550.000000, 63.953, 13.7885
1575.000000, 64.034, 13.3185
1600.000000, 64.110, 12.8424
1625.000000, 64.186, 12.3510
1650.000000, 64.261, 11.8550
1675.000000, 64.335, 11.3510
1700.000000, 64.408, 10.8351
1725.000000, 64.478, 10.3132
1750.000000, 64.546, 9.7862
1775.000000, 64.613, 9.2520
1800.000000, 64.679, 8.7085
1825.000000, 64.745, 8.1615
1850.000000, 64.813, 7.6073
1875.000000, 64.883, 7.0397
1900.000000, 64.956, 6.4552
1925.000000, 65.030, 5.8499
1950.000000, 65.106, 5.2173
1975.000000, 65.181, 4.5532
2000.000000, 65.256, 3.8498
2030.000000, 65.344, 2.9406
2060.000000, 65.430, 1.9508
2090.000000, 65.512, 0.8709
2120.000000, 65.586, -0.3037
2140.000000, 65.630, -1.1411
2180.000000, 65.702, -2.9659
2200.000000, 65.729, -3.9677
2240.000000, 65.757, -6.1591
2270.000000, 65.744, -7.9537
2300.000000, 65.691, -9.8553
2330.000000, 65.586, -11.8165
2360.000000, 65.419, -13.7339
2400.000000, 65.088, -15.9267
2430.000000, 64.768, -17.0445
2470.000000, 64.297, -17.5058
2500.000000, 63.967, -17.0234
2540.000000, 63.639, -15.5617
2580.000000, 63.480, -13.7660
2620.000000, 63.465, -12.2298
2650.000000, 63.512, -11.4387
2690.000000, 63.609, -10.9030
2720.000000, 63.683, -10.8429
2760.000000, 63.764, -11.1021
2800.000000, 63.812, -11.6003
2850.000000, 63.817, -12.3517
2900.000000, 63.766, -13.0528
2950.000000, 63.673, -13.5459
3000.000000, 63.562, -13.7210
3040.000000, 63.476, -13.6050
3070.000000, 63.422, -13.3745
3110.000000, 63.373, -12.9007
3150.000000, 63.359, -12.2961
3200.000000, 63.400, -11.4804
3250.000000, 63.507, -10.7283
3300.000000, 63.670, -10.1673
3350.000000, 63.882, -9.9121
3400.000000, 64.135, -10.0648
3450.000000, 64.413, -10.6968
3500.000000, 64.698, -11.8550
3550.000000, 64.971, -13.5722
3600.000000, 65.213, -15.8574
3650.000000, 65.404, -18.6824
3700.000000, 65.520, -21.9564
3750.000000, 65.538, -25.5299
3820.000000, 65.384, -30.6865
3870.000000, 65.148, -34.2176
3950.000000, 64.587, -39.1631
4000.000000, 64.151, -41.6639
4060.000000, 63.575, -44.0053
4120.000000, 62.971, -45.6454
4180.000000, 62.362, -46.6383
4250.000000, 61.671, -47.0766
4310.000000, 61.108, -46.9365
4370.000000, 60.579, -46.4016
4440.000000, 60.009, -45.3583
4500.000000, 59.561, -44.1842
4550.000000, 59.218, -43.0553
4620.000000, 58.782, -41.3066
4680.000000, 58.444, -39.6916
4750.000000, 58.087, -37.7048
4820.000000, 57.767, -35.6312
4870.000000, 57.562, -34.1021
4940.000000, 57.307, -31.9053
5000.000000, 57.115, -29.9792
5080.000000, 56.900, -27.3682
5150.000000, 56.748, -25.0635
5220.000000, 56.628, -22.7571
5300.000000, 56.526, -20.1408
5380.000000, 56.458, -17.5671
5450.000000, 56.425, -15.3716
5520.000000, 56.411, -13.2289
5600.000000, 56.415, -10.8131
5700.000000, 56.451, -7.7112
5800.000000, 56.560, -4.4284
5900.000000, 56.772, -1.1822
6000.000000, 57.122, 1.9691
6080.000000, 57.540, 3.8288
6150.000000, 57.922, 4.4142
6220.000000, 58.245, 4.3697
6300.000000, 58.546, 4.0633
6400.000000, 58.863, 3.4471
6500.000000, 59.127, 2.5467
6600.000000, 59.352, 1.5404
6700.000000, 59.577, 0.0922
6800.000000, 59.694, -2.1904
6900.000000, 59.641, -4.6152
7000.000000, 59.457, -6.7228
7100.000000, 59.185, -8.3622
7200.000000, 58.848, -9.5004
7300.000000, 58.465, -10.0744
7400.000000, 58.055, -10.0533
7500.000000, 57.639, -9.4201
7620.000000, 57.152, -7.8911
7750.000000, 56.671, -5.3972
7880.000000, 56.264, -2.1910
8000.000000, 55.966, 1.2558
8120.000000, 55.753, 5.0492
8250.000000, 55.632, 9.4279
8380.000000, 55.632, 13.9694
8500.000000, 55.741, 18.2010
8620.000000, 55.958, 22.3594
8750.000000, 56.315, 26.6512
8850.000000, 56.675, 29.7020
9000.000000, 57.354, 33.6564
9120.000000, 58.010, 36.0667
9250.000000, 58.820, 37.6242
9380.000000, 59.697, 37.7584
9500.000000, 60.510, 36.3623
9620.000000, 61.248, 33.4082
9750.000000, 61.862, 28.6343
9880.000000, 62.193, 22.8034
10000.000000, 62.218, 17.2367
10150.000000, 61.920, 11.0726
10300.000000, 61.393, 6.4933
10440.000000, 60.832, 3.7261
10600.000000, 60.224, 1.8912
10750.000000, 59.730, 0.8417
10900.000000, 59.303, -0.0897
11060.000000, 58.879, -1.2849
11200.000000, 58.485, -2.5461
11380.000000, 57.899, -4.2460
11500.000000, 57.450, -5.2407
11720.000000, 56.529, -6.4491
11800.000000, 56.174, -6.6617
12060.000000, 54.980, -6.5497
12200.000000, 54.324, -5.9966
12410.000000, 53.329, -4.4974
12500.000000, 52.901, -3.5886
12650.000000, 52.192, -1.6930
12800.000000, 51.502, 0.6923
13150.000000, 50.051, 8.0440
13200.000000, 49.870, 9.2713
13400.000000, 49.231, 14.5312
13600.000000, 48.747, 20.2126
13800.000000, 48.433, 26.1068
14000.000000, 48.293, 31.9991
14300.000000, 48.424, 40.6361
14500.000000, 48.774, 46.0348
14750.000000, 49.560, 51.9487
15000.000000, 50.801, 56.1775
15250.000000, 52.547, 57.4175
15500.000000, 54.745, 53.5915
15750.000000, 56.989, 42.3950
16000.000000, 58.657, 24.1307
16250.000000, 59.336, 1.2728
16500.000000, 58.788, -22.1467
16750.000000, 57.496, -41.2366
17000.000000, 56.922, -59.3662
17250.000000, 56.547, -85.0493
17500.000000, 54.398, -114.2427
17750.000000, 50.516, -137.1160
18000.000000, 46.134, -153.0655
18250.000000, 41.960, -165.6744
18500.000000, 38.050, -177.4648
18750.000000, 34.229, 170.5380
19000.000000, 30.409, 157.8837
19250.000000, 26.639, 143.3936
19500.000000, 22.935, 125.1423
19750.000000, 19.253, 101.5828
20000.000000, 16.367, 76.7471
