* Measurement data measured by REW V5.31.3
* Source: USB-C to 3.5mm Headphone Jack Adapter, USB-C to 3.5mm Headphone Jack Adapter, 0, volume: 0.264
* Format: 256k Log Swept Sine, 1 sweep at -12.0 dBFS with no timing reference
* Dated: Feb 24, 2025 12:43:47 PM
* REW Settings:
*  C-weighting compensation: Off
*  Target level: 75.0 dB
* Note: ; 
* Measurement: EPZ P50 L
* Smoothing: 1/24 octave
* Frequency Step: 1/48 octave
* Start Frequency: 1.000 Hz
*
* Freq(Hz), SPL(dB), Phase(degrees)
1.000000, 40.190, 35.7363
1.015000, 40.346, 34.5236
1.030000, 40.500, 33.3343
1.044000, 40.642, 32.2437
1.060000, 40.803, 31.0183
1.075000, 40.952, 29.8876
1.090000, 41.099, 28.7714
1.106000, 41.253, 27.5900
1.120000, 41.387, 26.5554
1.138000, 41.557, 25.2202
1.150000, 41.669, 24.3280
1.172000, 41.873, 22.6919
1.180000, 41.946, 22.0979
1.206000, 42.182, 20.1751
1.220000, 42.307, 19.1471
1.241000, 42.493, 17.6187
1.250000, 42.572, 16.9696
1.265000, 42.702, 15.8967
1.280000, 42.831, 14.8364
1.315000, 43.127, 12.4177
1.320000, 43.169, 12.0791
1.340000, 43.334, 10.7438
1.360000, 43.497, 9.4402
1.380000, 43.658, 8.1702
1.400000, 43.817, 6.9355
1.430000, 44.050, 5.1521
1.450000, 44.203, 4.0095
1.475000, 44.391, 2.6256
1.500000, 44.575, 1.2680
1.525000, 44.755, -0.0733
1.550000, 44.931, -1.3977
1.575000, 45.103, -2.7032
1.600000, 45.272, -3.9882
1.625000, 45.437, -5.2511
1.650000, 45.599, -6.4907
1.675000, 45.757, -7.7056
1.700000, 45.913, -8.8951
1.725000, 46.065, -10.0583
1.750000, 46.215, -11.1945
1.775000, 46.362, -12.3032
1.800000, 46.507, -13.3843
1.825000, 46.650, -14.4397
1.850000, 46.789, -15.4782
1.875000, 46.925, -16.5111
1.900000, 47.058, -17.5402
1.925000, 47.187, -18.5631
1.950000, 47.314, -19.5771
1.975000, 47.437, -20.5793
2.000000, 47.558, -21.5668
2.030000, 47.700, -22.7286
2.060000, 47.839, -23.8611
2.090000, 47.974, -24.9598
2.120000, 48.108, -26.0208
2.140000, 48.196, -26.7053
2.180000, 48.369, -28.0162
2.200000, 48.454, -28.6440
2.240000, 48.621, -29.8625
2.270000, 48.741, -30.7535
2.300000, 48.859, -31.6260
2.330000, 48.973, -32.4790
2.360000, 49.085, -33.3109
2.400000, 49.231, -34.3849
2.430000, 49.340, -35.1617
2.470000, 49.482, -36.1558
2.500000, 49.589, -36.8677
2.540000, 49.731, -37.7688
2.580000, 49.873, -38.6138
2.620000, 50.014, -39.4082
2.650000, 50.117, -39.9754
2.690000, 50.253, -40.6977
2.720000, 50.354, -41.2166
2.760000, 50.489, -41.8814
2.800000, 50.624, -42.5183
2.850000, 50.794, -43.2796
2.900000, 50.968, -44.0061
2.950000, 51.145, -44.6939
3.000000, 51.326, -45.3303
3.040000, 51.471, -45.8048
3.070000, 51.581, -46.1452
3.110000, 51.729, -46.5845
3.150000, 51.879, -47.0135
3.200000, 52.068, -47.5453
3.250000, 52.259, -48.0821
3.300000, 52.454, -48.6271
3.350000, 52.653, -49.1640
3.400000, 52.856, -49.6824
3.450000, 53.061, -50.1913
3.500000, 53.268, -50.7036
3.550000, 53.476, -51.2314
3.600000, 53.683, -51.7854
3.650000, 53.889, -52.3729
3.700000, 54.095, -52.9885
3.750000, 54.301, -53.6194
3.820000, 54.591, -54.5226
3.870000, 54.796, -55.1849
3.950000, 55.119, -56.2825
4.000000, 55.316, -56.9970
4.060000, 55.545, -57.8869
4.120000, 55.771, -58.8085
4.180000, 55.991, -59.7533
4.250000, 56.241, -60.8741
4.310000, 56.449, -61.8438
4.370000, 56.648, -62.8189
4.440000, 56.871, -63.9709
4.500000, 57.053, -64.9785
4.550000, 57.200, -65.8272
4.620000, 57.397, -67.0150
4.680000, 57.558, -68.0210
4.750000, 57.738, -69.1709
4.820000, 57.907, -70.3049
4.870000, 58.021, -71.1137
4.940000, 58.174, -72.2388
5.000000, 58.298, -73.1862
5.080000, 58.455, -74.4085
5.150000, 58.585, -75.4340
5.220000, 58.707, -76.4298
5.300000, 58.838, -77.5383
5.380000, 58.961, -78.6076
5.450000, 59.065, -79.5028
5.520000, 59.165, -80.3569
5.600000, 59.275, -81.2892
5.700000, 59.404, -82.3978
5.800000, 59.529, -83.4463
5.900000, 59.651, -84.4342
6.000000, 59.769, -85.3638
6.080000, 59.862, -86.0714
6.150000, 59.942, -86.6687
6.220000, 60.022, -87.2483
6.300000, 60.111, -87.8893
6.400000, 60.222, -88.6587
6.500000, 60.332, -89.3972
6.600000, 60.440, -90.1096
6.700000, 60.546, -90.7979
6.800000, 60.651, -91.4621
6.900000, 60.754, -92.1036
7.000000, 60.857, -92.7225
7.100000, 60.959, -93.3189
7.200000, 61.061, -93.8970
7.300000, 61.164, -94.4616
7.400000, 61.268, -95.0120
7.500000, 61.374, -95.5492
7.620000, 61.503, -96.1938
7.750000, 61.648, -96.9087
7.880000, 61.796, -97.6400
8.000000, 61.935, -98.3501
8.120000, 62.074, -99.1134
8.250000, 62.225, -99.9973
8.380000, 62.372, -100.9437
8.500000, 62.500, -101.8832
8.620000, 62.621, -102.8812
8.750000, 62.739, -104.0044
8.850000, 62.819, -104.8924
9.000000, 62.921, -106.2597
9.120000, 62.986, -107.3436
9.250000, 63.038, -108.4827
9.380000, 63.073, -109.5806
9.500000, 63.093, -110.5204
9.620000, 63.103, -111.3673
9.750000, 63.104, -112.1814
9.880000, 63.102, -112.8716
10.000000, 63.101, -113.3860
10.150000, 63.106, -113.8798
10.300000, 63.128, -114.2379
10.440000, 63.167, -114.4621
10.600000, 63.237, -114.6542
10.750000, 63.329, -114.8250
10.900000, 63.444, -115.0190
11.060000, 63.587, -115.3164
11.200000, 63.726, -115.6661
11.380000, 63.912, -116.2545
11.500000, 64.038, -116.7383
11.720000, 64.261, -117.7785
11.800000, 64.338, -118.1978
12.060000, 64.568, -119.6631
12.200000, 64.679, -120.4821
12.410000, 64.829, -121.7170
12.500000, 64.888, -122.2369
12.650000, 64.979, -123.0862
12.800000, 65.065, -123.9092
13.150000, 65.248, -125.7119
13.200000, 65.272, -125.9570
13.400000, 65.367, -126.9089
13.600000, 65.457, -127.8201
13.800000, 65.542, -128.6950
14.000000, 65.622, -129.5350
14.300000, 65.730, -130.7318
14.500000, 65.796, -131.4881
14.750000, 65.871, -132.3902
15.000000, 65.938, -133.2481
15.250000, 65.995, -134.0647
15.500000, 66.042, -134.8368
15.750000, 66.080, -135.5573
16.000000, 66.109, -136.2165
16.250000, 66.133, -136.8115
16.500000, 66.155, -137.3508
16.750000, 66.181, -137.8560
17.000000, 66.210, -138.3597
17.250000, 66.242, -138.8911
17.500000, 66.274, -139.4698
17.750000, 66.301, -140.0962
18.000000, 66.323, -140.7550
18.250000, 66.338, -141.4243
18.500000, 66.352, -142.0870
18.750000, 66.370, -142.7453
19.000000, 66.397, -143.4208
19.250000, 66.435, -144.1548
19.500000, 66.483, -144.9887
19.750000, 66.534, -145.9497
20.000000, 66.581, -147.0400
20.299999, 66.619, -148.4755
20.600000, 66.631, -149.9613
20.900000, 66.619, -151.3889
21.200001, 66.591, -152.6677
21.400000, 66.572, -153.4144
21.799999, 66.550, -154.6668
22.000000, 66.552, -155.2024
22.400000, 66.588, -156.1907
22.700001, 66.635, -156.9210
23.000000, 66.689, -157.6652
23.299999, 66.742, -158.4126
23.600000, 66.790, -159.1364
24.000000, 66.844, -160.0168
24.299999, 66.877, -160.5902
24.700001, 66.915, -161.2254
25.000000, 66.939, -161.6058
25.400000, 66.969, -161.9962
25.799999, 67.001, -162.2825
26.200001, 67.038, -162.5227
26.500000, 67.068, -162.7198
26.900000, 67.106, -163.0611
27.200001, 67.125, -163.3897
27.600000, 67.128, -163.8919
28.000000, 67.102, -164.3781
28.500000, 67.047, -164.8200
29.000000, 67.007, -165.0698
29.500000, 67.014, -165.3532
30.000000, 67.054, -165.9352
30.400000, 67.085, -166.6570
30.700001, 67.097, -167.3005
31.100000, 67.099, -168.2168
31.500000, 67.089, -169.1458
32.000000, 67.066, -170.3046
32.500000, 67.021, -171.4180
33.000000, 66.952, -172.3344
33.500000, 66.881, -172.9086
34.000000, 66.847, -173.2106
34.500000, 66.860, -173.5016
35.000000, 66.888, -173.9638
35.500000, 66.900, -174.5428
36.000000, 66.892, -175.0981
36.500000, 66.883, -175.6079
37.000000, 66.877, -176.1580
37.500000, 66.859, -176.7810
38.200001, 66.808, -177.6252
38.700001, 66.772, -178.1398
39.500000, 66.740, -178.9700
40.000000, 66.726, -179.5543
40.599998, 66.705, 179.7427
41.200001, 66.689, 179.0805
41.799999, 66.678, 178.4378
42.500000, 66.660, 177.7325
43.099998, 66.643, 177.2014
43.700001, 66.627, 176.7054
44.400002, 66.595, 176.1533
45.000000, 66.558, 175.7708
45.500000, 66.534, 175.5106
46.200001, 66.517, 175.0569
46.799999, 66.498, 174.4681
47.500000, 66.443, 173.6785
48.200001, 66.366, 172.9988
48.700001, 66.317, 172.5839
49.400002, 66.263, 172.0036
50.000000, 66.219, 171.4902
50.799999, 66.158, 170.8889
51.500000, 66.115, 170.5000
52.200001, 66.090, 170.1786
53.000000, 66.078, 169.7248
53.799999, 66.043, 169.1142
54.500000, 65.971, 168.6260
55.200001, 65.879, 168.4076
56.000000, 65.812, 168.3801
57.000000, 65.780, 167.8825
58.000000, 65.660, 167.0519
59.000000, 65.533, 166.8686
60.000000, 65.516, 166.5844
60.799999, 65.505, 165.9632
61.500000, 65.472, 165.3396
62.200001, 65.415, 164.7816
63.000000, 65.340, 164.3865
64.000000, 65.289, 164.0763
65.000000, 65.246, 163.5114
66.000000, 65.167, 162.9896
67.000000, 65.090, 162.6006
68.000000, 65.018, 162.3121
69.000000, 64.976, 162.0305
70.000000, 64.937, 161.5317
71.000000, 64.868, 160.9721
72.000000, 64.777, 160.5071
73.000000, 64.675, 160.1859
74.000000, 64.576, 160.0107
75.000000, 64.497, 159.9432
76.199997, 64.439, 159.8168
77.500000, 64.392, 159.5004
78.800003, 64.339, 159.1216
80.000000, 64.280, 158.7547
81.199997, 64.193, 158.3403
82.500000, 64.062, 158.0630
83.800003, 63.938, 157.8849
85.000000, 63.823, 157.6497
86.199997, 63.715, 157.5200
87.500000, 63.629, 157.4189
88.500000, 63.571, 157.3010
90.000000, 63.474, 157.1934
91.199997, 63.390, 157.1559
92.500000, 63.296, 157.0782
93.800003, 63.202, 156.8475
95.000000, 63.112, 156.5356
96.199997, 63.028, 156.2426
97.500000, 62.947, 156.0007
98.800003, 62.871, 155.9639
100.000000, 62.811, 156.1175
101.500000, 62.737, 156.4281
103.000000, 62.671, 156.8455
104.400002, 62.629, 157.0753
106.000000, 62.561, 157.0679
107.500000, 62.469, 157.0807
109.000000, 62.355, 157.1635
110.599998, 62.212, 157.4402
112.000000, 62.093, 157.7630
113.800003, 61.964, 158.3505
115.000000, 61.933, 158.8096
117.199997, 61.939, 159.0473
118.000000, 61.926, 159.0358
120.599998, 61.851, 159.1088
122.000000, 61.777, 159.1546
124.099998, 61.681, 159.5305
125.000000, 61.659, 159.6603
126.500000, 61.622, 159.7113
128.000000, 61.562, 159.7752
131.500000, 61.429, 160.1223
132.000000, 61.410, 160.1418
134.000000, 61.331, 160.2046
136.000000, 61.254, 160.3160
138.000000, 61.195, 160.4873
140.000000, 61.133, 160.6474
143.000000, 61.054, 161.1499
145.000000, 61.010, 161.3737
147.500000, 60.953, 161.5844
150.000000, 60.925, 161.9908
152.500000, 60.938, 162.5549
155.000000, 60.923, 162.9902
157.500000, 60.826, 163.2946
160.000000, 60.717, 163.5324
162.500000, 60.641, 163.8051
165.000000, 60.624, 164.4201
167.500000, 60.625, 164.9356
170.000000, 60.590, 165.3228
172.500000, 60.577, 165.7010
175.000000, 60.574, 165.7529
177.500000, 60.521, 165.9906
180.000000, 60.504, 166.6298
182.500000, 60.511, 166.6829
185.000000, 60.439, 166.7874
187.500000, 60.411, 167.5782
190.000000, 60.449, 167.7675
192.500000, 60.405, 167.4586
195.000000, 60.311, 167.9221
197.500000, 60.347, 168.8548
200.000000, 60.447, 168.5070
203.000000, 60.303, 167.7703
206.000000, 60.196, 169.4078
209.000000, 60.360, 170.0023
212.000000, 60.337, 169.0725
214.000000, 60.222, 169.1196
218.000000, 60.196, 171.0308
220.000000, 60.279, 171.2292
224.000000, 60.332, 170.9609
227.000000, 60.263, 170.7918
230.000000, 60.213, 171.3533
233.000000, 60.205, 171.5019
236.000000, 60.170, 171.8908
240.000000, 60.233, 172.1068
243.000000, 60.234, 171.7573
247.000000, 60.261, 172.5765
250.000000, 60.342, 172.7547
254.000000, 60.280, 172.3064
258.000000, 60.170, 172.7343
262.000000, 60.239, 173.6605
265.000000, 60.330, 173.8484
269.000000, 60.327, 172.9594
272.000000, 60.228, 172.5746
276.000000, 60.079, 173.3812
280.000000, 60.046, 174.2049
285.000000, 60.096, 174.4617
290.000000, 60.155, 174.7899
295.000000, 60.167, 174.8267
300.000000, 60.150, 175.0679
304.000000, 60.165, 175.1011
307.000000, 60.165, 174.9538
311.000000, 60.139, 174.7046
315.000000, 60.121, 174.6755
320.000000, 60.142, 175.0446
325.000000, 60.163, 175.6285
330.000000, 60.161, 175.9510
335.000000, 60.160, 176.0904
340.000000, 60.135, 176.4137
345.000000, 60.078, 176.6539
350.000000, 60.055, 176.4446
355.000000, 60.080, 176.1155
360.000000, 60.130, 175.8832
365.000000, 60.121, 176.1090
370.000000, 60.043, 176.9499
375.000000, 60.003, 177.1902
382.000000, 60.046, 177.2220
387.000000, 60.061, 177.1601
395.000000, 60.023, 177.1077
400.000000, 59.990, 177.2803
406.000000, 59.961, 177.5303
412.000000, 59.945, 177.7065
418.000000, 59.928, 177.8309
425.000000, 59.916, 177.9616
431.000000, 59.908, 178.0941
437.000000, 59.906, 178.2865
444.000000, 59.895, 178.6089
450.000000, 59.865, 178.8191
455.000000, 59.842, 178.9093
462.000000, 59.813, 179.0565
468.000000, 59.769, 179.0702
475.000000, 59.748, 178.8021
482.000000, 59.804, 178.8423
487.000000, 59.840, 179.4188
494.000000, 59.769, -179.6731
500.000000, 59.702, -179.7701
508.000000, 59.699, -179.5009
515.000000, 59.671, -179.2045
522.000000, 59.655, -179.0748
530.000000, 59.625, -178.6763
538.000000, 59.602, -178.4590
545.000000, 59.580, -178.1158
552.000000, 59.567, -177.9472
560.000000, 59.535, -177.6260
570.000000, 59.512, -177.2115
580.000000, 59.478, -176.7576
590.000000, 59.459, -176.3158
600.000000, 59.433, -175.9612
608.000000, 59.416, -175.5968
615.000000, 59.408, -175.3031
622.000000, 59.399, -175.0110
630.000000, 59.381, -174.5986
640.000000, 59.359, -174.1343
650.000000, 59.351, -173.7550
660.000000, 59.331, -173.3810
670.000000, 59.314, -173.0237
680.000000, 59.293, -172.5550
690.000000, 59.268, -172.1405
700.000000, 59.248, -171.6808
710.000000, 59.227, -171.1765
720.000000, 59.206, -170.6595
730.000000, 59.189, -170.1250
740.000000, 59.174, -169.5724
750.000000, 59.162, -169.0016
762.000000, 59.149, -168.3105
775.000000, 59.139, -167.5427
788.000000, 59.136, -166.7539
800.000000, 59.138, -166.0072
812.000000, 59.144, -165.2417
825.000000, 59.157, -164.3990
838.000000, 59.176, -163.5587
850.000000, 59.199, -162.7835
862.000000, 59.227, -162.0059
875.000000, 59.263, -161.1613
885.000000, 59.295, -160.5143
900.000000, 59.350, -159.5519
912.000000, 59.400, -158.7956
925.000000, 59.460, -157.9938
938.000000, 59.526, -157.2063
950.000000, 59.592, -156.4977
962.000000, 59.663, -155.8120
975.000000, 59.746, -155.1016
988.000000, 59.833, -154.4247
1000.000000, 59.917, -153.8268
1015.000000, 60.027, -153.1144
1030.000000, 60.140, -152.4540
1044.000000, 60.250, -151.8902
1060.000000, 60.379, -151.3090
1075.000000, 60.501, -150.8163
1090.000000, 60.624, -150.3810
1106.000000, 60.755, -149.9781
1120.000000, 60.868, -149.6701
1138.000000, 61.010, -149.3351
1150.000000, 61.102, -149.1498
1172.000000, 61.268, -148.8898
1180.000000, 61.327, -148.8143
1206.000000, 61.508, -148.6198
1220.000000, 61.599, -148.5462
1241.000000, 61.728, -148.4703
1250.000000, 61.781, -148.4484
1265.000000, 61.867, -148.4202
1280.000000, 61.949, -148.3991
1315.000000, 62.123, -148.3629
1320.000000, 62.145, -148.3599
1340.000000, 62.233, -148.3562
1360.000000, 62.318, -148.3419
1380.000000, 62.398, -148.3152
1400.000000, 62.474, -148.2813
1430.000000, 62.581, -148.2095
1450.000000, 62.648, -148.1417
1475.000000, 62.730, -148.0355
1500.000000, 62.811, -147.9078
1525.000000, 62.891, -147.7659
1550.000000, 62.969, -147.5920
1575.000000, 63.047, -147.3964
1600.000000, 63.126, -147.1936
1625.000000, 63.206, -146.9700
1650.000000, 63.287, -146.7270
1675.000000, 63.371, -146.4954
1700.000000, 63.458, -146.2603
1725.000000, 63.546, -146.0162
1750.000000, 63.636, -145.7643
1775.000000, 63.729, -145.5105
1800.000000, 63.825, -145.2625
1825.000000, 63.923, -145.0210
1850.000000, 64.025, -144.7855
1875.000000, 64.130, -144.5540
1900.000000, 64.238, -144.3307
1925.000000, 64.348, -144.1225
1950.000000, 64.461, -143.9282
1975.000000, 64.577, -143.7468
2000.000000, 64.696, -143.5818
2030.000000, 64.843, -143.4120
2060.000000, 64.994, -143.2738
2090.000000, 65.149, -143.1705
2120.000000, 65.308, -143.1025
2140.000000, 65.415, -143.0768
2180.000000, 65.634, -143.0801
2200.000000, 65.745, -143.1141
2240.000000, 65.972, -143.2479
2270.000000, 66.146, -143.4073
2300.000000, 66.320, -143.6198
2330.000000, 66.495, -143.8894
2360.000000, 66.671, -144.2222
2400.000000, 66.904, -144.7656
2430.000000, 67.078, -145.2513
2470.000000, 67.307, -146.0051
2500.000000, 67.476, -146.6501
2540.000000, 67.694, -147.6171
2580.000000, 67.902, -148.7072
2620.000000, 68.099, -149.9221
2650.000000, 68.238, -150.9113
2690.000000, 68.408, -152.3257
2720.000000, 68.523, -153.4526
2760.000000, 68.659, -155.0338
2800.000000, 68.772, -156.6930
2850.000000, 68.880, -158.8499
2900.000000, 68.948, -161.0638
2950.000000, 68.973, -163.2961
3000.000000, 68.957, -165.5056
3040.000000, 68.914, -167.2220
3070.000000, 68.866, -168.4628
3110.000000, 68.782, -170.0416
3150.000000, 68.679, -171.5195
3200.000000, 68.525, -173.2071
3250.000000, 68.351, -174.7020
3300.000000, 68.162, -175.9942
3350.000000, 67.963, -177.0829
3400.000000, 67.761, -177.9801
3450.000000, 67.558, -178.7018
3500.000000, 67.356, -179.2597
3550.000000, 67.156, -179.6620
3600.000000, 66.962, -179.9111
3650.000000, 66.775, 179.9899
3700.000000, 66.600, -179.9634
3750.000000, 66.439, -179.7837
3820.000000, 66.246, -179.3687
3870.000000, 66.133, -179.0153
3950.000000, 65.987, -178.4491
4000.000000, 65.910, -178.1099
4060.000000, 65.830, -177.7107
4120.000000, 65.763, -177.3123
4180.000000, 65.708, -176.9158
4250.000000, 65.660, -176.4698
4310.000000, 65.632, -176.1224
4370.000000, 65.615, -175.8220
4440.000000, 65.603, -175.5258
4500.000000, 65.599, -175.3032
4550.000000, 65.603, -175.1299
4620.000000, 65.623, -174.9149
4680.000000, 65.657, -174.7944
4750.000000, 65.716, -174.7957
4820.000000, 65.789, -175.0078
4870.000000, 65.844, -175.3068
4940.000000, 65.917, -175.9382
5000.000000, 65.970, -176.6731
5080.000000, 66.017, -177.9183
5150.000000, 66.027, -179.2329
5220.000000, 65.999, 179.2820
5300.000000, 65.911, 177.4437
5380.000000, 65.759, 175.5492
5450.000000, 65.570, 173.9315
5520.000000, 65.330, 172.4289
5600.000000, 65.000, 170.9443
5700.000000, 64.515, 169.5688
5800.000000, 63.975, 168.8486
5900.000000, 63.411, 168.8476
6000.000000, 62.852, 169.5688
6080.000000, 62.426, 170.6302
6150.000000, 62.079, 171.8696
6220.000000, 61.761, 173.3528
6300.000000, 61.440, 175.2901
6400.000000, 61.106, 177.9927
6500.000000, 60.851, -179.0943
6600.000000, 60.673, -176.0612
6700.000000, 60.572, -172.9924
6800.000000, 60.546, -169.9541
6900.000000, 60.594, -167.0063
7000.000000, 60.717, -164.1975
7100.000000, 60.914, -161.5626
7200.000000, 61.200, -159.1304
7300.000000, 61.597, -157.1292
7400.000000, 62.076, -155.9707
7500.000000, 62.598, -155.6563
7620.000000, 63.273, -156.5490
7750.000000, 63.997, -159.5304
7880.000000, 64.567, -164.8390
8000.000000, 64.795, -171.4332
8120.000000, 64.629, -178.6930
8250.000000, 63.997, 174.1221
8380.000000, 63.012, 168.8488
8500.000000, 61.947, 166.1153
8620.000000, 60.860, 165.3223
8750.000000, 59.756, 166.2447
8850.000000, 58.990, 167.9190
9000.000000, 58.005, 171.5537
9120.000000, 57.365, 175.1383
9250.000000, 56.823, 179.4315
9380.000000, 56.439, -176.0793
9500.000000, 56.223, -171.9590
9620.000000, 56.131, -168.0554
9750.000000, 56.156, -164.2926
9880.000000, 56.285, -161.2357
10000.000000, 56.462, -159.1977
10150.000000, 56.693, -157.8009
10300.000000, 56.852, -157.5297
10440.000000, 56.872, -157.8597
10600.000000, 56.725, -158.1614
10750.000000, 56.479, -157.6906
10900.000000, 56.234, -156.2032
11060.000000, 56.091, -153.7747
11200.000000, 56.112, -151.5013
11380.000000, 56.314, -149.1309
11500.000000, 56.521, -148.0832
11720.000000, 56.991, -147.4136
11800.000000, 57.173, -147.6256
12060.000000, 57.702, -149.8583
12200.000000, 57.919, -151.7728
12410.000000, 58.158, -155.2514
12500.000000, 58.233, -156.9441
12650.000000, 58.319, -160.0522
12800.000000, 58.345, -163.5222
13150.000000, 58.081, -172.4964
13200.000000, 58.000, -173.7877
13400.000000, 57.578, -178.6955
13600.000000, 57.034, 177.1185
13800.000000, 56.437, 173.8838
14000.000000, 55.864, 171.6039
14300.000000, 55.201, 169.5192
14500.000000, 54.966, 168.4444
14750.000000, 54.937, 166.5198
15000.000000, 55.155, 163.1462
15250.000000, 55.539, 157.6403
15500.000000, 55.950, 149.5295
15750.000000, 56.210, 139.0306
16000.000000, 56.213, 126.8642
16250.000000, 55.907, 113.9195
16500.000000, 55.347, 101.3233
16750.000000, 54.756, 89.4303
17000.000000, 54.282, 77.2279
17250.000000, 53.913, 64.0036
17500.000000, 53.738, 49.0624
17750.000000, 53.805, 30.5941
18000.000000, 53.843, 6.6270
18250.000000, 53.253, -22.9164
18500.000000, 51.567, -55.3429
18750.000000, 48.796, -87.4664
19000.000000, 45.352, -118.3591
19250.000000, 41.700, -149.9664
19500.000000, 37.942, 175.2509
19750.000000, 33.900, 136.1171
20000.000000, 30.379, 97.8541
