* Measurement data measured by REW V5.31.3
* Source: USB-C to 3.5mm Headphone Jack Adapter, USB-C to 3.5mm Headphone Jack Adapter, 0, volume: 0.470
* Format: 256k Log Swept Sine, 1 sweep at -12.0 dBFS with no timing reference
* Dated: Feb 23, 2025 6:14:17 AM
* REW Settings:
*  C-weighting compensation: Off
*  Target level: 75.0 dB
* Note: ; 
* Measurement: Kiwi Ears Crin Singolo R
* Smoothing: 1/24 octave
* Frequency Step: 1/48 octave
* Start Frequency: 1.000 Hz
*
* Freq(Hz), SPL(dB), Phase(degrees)
1.000000, 44.081, 3.4715
1.015000, 44.194, 3.0982
1.030000, 44.306, 2.7219
1.044000, 44.409, 2.3679
1.060000, 44.526, 1.9598
1.075000, 44.634, 1.5737
1.090000, 44.740, 1.1836
1.106000, 44.852, 0.7614
1.120000, 44.949, 0.3843
1.138000, 45.072, -0.1116
1.150000, 45.154, -0.4484
1.172000, 45.300, -1.0761
1.180000, 45.353, -1.3072
1.206000, 45.523, -2.0654
1.220000, 45.613, -2.4769
1.241000, 45.746, -3.0962
1.250000, 45.803, -3.3618
1.265000, 45.896, -3.8040
1.280000, 45.988, -4.2449
1.315000, 46.200, -5.2638
1.320000, 46.230, -5.4079
1.340000, 46.348, -5.9793
1.360000, 46.465, -6.5417
1.380000, 46.580, -7.0937
1.400000, 46.694, -7.6340
1.430000, 46.862, -8.4197
1.450000, 46.972, -8.9258
1.475000, 47.108, -9.5417
1.500000, 47.240, -10.1505
1.525000, 47.370, -10.7570
1.550000, 47.496, -11.3603
1.575000, 47.620, -11.9589
1.600000, 47.741, -12.5511
1.625000, 47.859, -13.1354
1.650000, 47.976, -13.7103
1.675000, 48.091, -14.2743
1.700000, 48.204, -14.8260
1.725000, 48.315, -15.3640
1.750000, 48.426, -15.8871
1.775000, 48.535, -16.3940
1.800000, 48.644, -16.8835
1.825000, 48.752, -17.3554
1.850000, 48.858, -17.8128
1.875000, 48.963, -18.2609
1.900000, 49.065, -18.7010
1.925000, 49.165, -19.1331
1.950000, 49.263, -19.5565
1.975000, 49.361, -19.9707
2.000000, 49.457, -20.3750
2.030000, 49.571, -20.8462
2.060000, 49.685, -21.3010
2.090000, 49.798, -21.7381
2.120000, 49.913, -22.1563
2.140000, 49.989, -22.4239
2.180000, 50.145, -22.9304
2.200000, 50.223, -23.1683
2.240000, 50.381, -23.6108
2.270000, 50.499, -23.9155
2.300000, 50.616, -24.2007
2.330000, 50.734, -24.4700
2.360000, 50.851, -24.7268
2.400000, 51.010, -25.0554
2.430000, 51.130, -25.2952
2.470000, 51.293, -25.6113
2.500000, 51.417, -25.8486
2.540000, 51.586, -26.1683
2.580000, 51.760, -26.4850
2.620000, 51.939, -26.7786
2.650000, 52.075, -26.9820
2.690000, 52.260, -27.2403
2.720000, 52.400, -27.4315
2.760000, 52.589, -27.6932
2.800000, 52.781, -27.9731
2.850000, 53.022, -28.3645
2.900000, 53.265, -28.8170
2.950000, 53.511, -29.3276
3.000000, 53.760, -29.8599
3.040000, 53.964, -30.2943
3.070000, 54.117, -30.6287
3.110000, 54.323, -31.0918
3.150000, 54.528, -31.5808
3.200000, 54.783, -32.2382
3.250000, 55.032, -32.9574
3.300000, 55.277, -33.7444
3.350000, 55.518, -34.5884
3.400000, 55.757, -35.4730
3.450000, 55.993, -36.3906
3.500000, 56.225, -37.3379
3.550000, 56.451, -38.3134
3.600000, 56.668, -39.3177
3.650000, 56.876, -40.3546
3.700000, 57.075, -41.4348
3.750000, 57.267, -42.5629
3.820000, 57.523, -44.1980
3.870000, 57.696, -45.3833
3.950000, 57.953, -47.2724
4.000000, 58.101, -48.4360
4.060000, 58.265, -49.8295
4.120000, 58.414, -51.2563
4.180000, 58.549, -52.7082
4.250000, 58.689, -54.3883
4.310000, 58.796, -55.7771
4.370000, 58.889, -57.0921
4.440000, 58.980, -58.5483
4.500000, 59.042, -59.7726
4.550000, 59.084, -60.7736
4.620000, 59.129, -62.1130
4.680000, 59.159, -63.1688
4.750000, 59.186, -64.2547
4.820000, 59.202, -65.1852
4.870000, 59.205, -65.7741
4.940000, 59.200, -66.4970
5.000000, 59.195, -67.0148
5.080000, 59.197, -67.5386
5.150000, 59.212, -67.8172
5.220000, 59.233, -67.9133
5.300000, 59.266, -67.8322
5.380000, 59.318, -67.6145
5.450000, 59.391, -67.3643
5.520000, 59.495, -67.0699
5.600000, 59.650, -66.6410
5.700000, 59.890, -66.0469
5.800000, 60.172, -65.5946
5.900000, 60.496, -65.4114
6.000000, 60.866, -65.4265
6.080000, 61.184, -65.5970
6.150000, 61.468, -65.9076
6.220000, 61.748, -66.3945
6.300000, 62.065, -67.1531
6.400000, 62.462, -68.3376
6.500000, 62.845, -69.7391
6.600000, 63.201, -71.3491
6.700000, 63.526, -73.1806
6.800000, 63.824, -75.1786
6.900000, 64.091, -77.2500
7.000000, 64.321, -79.3680
7.100000, 64.516, -81.5727
7.200000, 64.677, -83.8098
7.300000, 64.806, -85.9844
7.400000, 64.903, -88.0865
7.500000, 64.967, -90.1531
7.620000, 65.008, -92.5106
7.750000, 65.016, -94.8004
7.880000, 64.986, -96.8441
8.000000, 64.938, -98.4936
8.120000, 64.882, -99.8546
8.250000, 64.813, -101.0075
8.380000, 64.751, -101.8774
8.500000, 64.714, -102.4389
8.620000, 64.696, -102.7760
8.750000, 64.705, -102.9884
8.850000, 64.737, -103.0946
9.000000, 64.825, -103.1750
9.120000, 64.922, -103.2513
9.250000, 65.050, -103.4130
9.380000, 65.200, -103.6566
9.500000, 65.348, -103.9734
9.620000, 65.500, -104.3926
9.750000, 65.667, -104.9484
9.880000, 65.832, -105.5916
10.000000, 65.979, -106.2552
10.150000, 66.156, -107.1664
10.300000, 66.326, -108.1450
10.440000, 66.477, -109.1114
10.600000, 66.640, -110.2761
10.750000, 66.785, -111.4241
10.900000, 66.919, -112.6238
11.060000, 67.047, -113.9584
11.200000, 67.146, -115.1686
11.380000, 67.249, -116.7448
11.500000, 67.301, -117.7987
11.720000, 67.361, -119.6640
11.800000, 67.371, -120.2996
12.060000, 67.371, -122.1468
12.200000, 67.358, -122.9463
12.410000, 67.337, -123.8748
12.500000, 67.334, -124.1735
12.650000, 67.343, -124.5507
12.800000, 67.375, -124.8376
13.150000, 67.564, -125.4738
13.200000, 67.602, -125.6013
13.400000, 67.776, -126.2699
13.600000, 67.961, -127.2477
13.800000, 68.135, -128.5503
14.000000, 68.273, -130.0939
14.300000, 68.383, -132.6216
14.500000, 68.387, -134.2244
14.750000, 68.330, -135.8838
15.000000, 68.240, -136.9898
15.250000, 68.171, -137.4930
15.500000, 68.171, -137.5731
15.750000, 68.261, -137.5334
16.000000, 68.429, -137.7222
16.250000, 68.632, -138.3466
16.500000, 68.821, -139.4200
16.750000, 68.955, -140.7994
17.000000, 69.019, -142.2346
17.250000, 69.020, -143.4894
17.500000, 68.983, -144.3792
17.750000, 68.950, -144.8555
18.000000, 68.954, -145.0215
18.250000, 69.015, -145.0887
18.500000, 69.125, -145.3029
18.750000, 69.257, -145.8179
19.000000, 69.375, -146.6669
19.250000, 69.448, -147.7483
19.500000, 69.464, -148.8876
19.750000, 69.426, -149.9029
20.000000, 69.352, -150.6445
20.299999, 69.259, -151.1020
20.600000, 69.203, -151.1860
20.900000, 69.210, -151.1500
21.200001, 69.272, -151.2707
21.400000, 69.328, -151.5221
21.799999, 69.431, -152.4410
22.000000, 69.465, -153.0491
22.400000, 69.491, -154.3682
22.700001, 69.485, -155.3380
23.000000, 69.468, -156.2559
23.299999, 69.446, -157.1311
23.600000, 69.418, -157.9693
24.000000, 69.371, -158.9879
24.299999, 69.332, -159.6273
24.700001, 69.295, -160.2922
25.000000, 69.292, -160.7069
25.400000, 69.319, -161.2905
25.799999, 69.359, -161.9940
26.200001, 69.386, -162.7378
26.500000, 69.399, -163.2188
26.900000, 69.430, -163.7083
27.200001, 69.482, -164.0497
27.600000, 69.589, -164.7272
28.000000, 69.693, -165.8682
28.500000, 69.718, -167.8085
29.000000, 69.570, -169.5762
29.500000, 69.321, -170.3287
30.000000, 69.136, -169.9599
30.400000, 69.111, -169.3940
30.700001, 69.156, -169.1683
31.100000, 69.254, -169.3602
31.500000, 69.337, -170.0866
32.000000, 69.374, -171.3968
32.500000, 69.345, -172.7455
33.000000, 69.290, -173.9449
33.500000, 69.234, -175.0347
34.000000, 69.176, -176.0600
34.500000, 69.110, -176.9398
35.000000, 69.056, -177.5688
35.500000, 69.044, -178.0203
36.000000, 69.078, -178.5407
36.500000, 69.119, -179.2828
37.000000, 69.125, 179.8831
37.500000, 69.095, 179.2235
38.200001, 69.059, 178.7255
38.700001, 69.058, 178.4380
39.500000, 69.046, 177.8301
40.000000, 69.019, 177.4716
40.599998, 68.993, 177.0619
41.200001, 68.972, 176.4752
41.799999, 68.919, 175.6952
42.500000, 68.809, 174.8852
43.099998, 68.726, 174.4340
43.700001, 68.694, 173.9765
44.400002, 68.692, 173.0425
45.000000, 68.656, 172.0007
45.500000, 68.595, 171.2739
46.200001, 68.533, 170.7006
46.799999, 68.547, 170.2877
47.500000, 68.578, 169.4997
48.200001, 68.558, 168.7372
48.700001, 68.540, 168.4092
49.400002, 68.543, 167.9833
50.000000, 68.528, 167.4106
50.799999, 68.411, 166.7561
51.500000, 68.268, 166.7625
52.200001, 68.175, 167.1123
53.000000, 68.127, 167.2585
53.799999, 68.065, 166.9685
54.500000, 67.987, 166.7007
55.200001, 67.952, 166.3879
56.000000, 67.947, 165.3387
57.000000, 67.792, 163.4230
58.000000, 67.564, 162.6744
59.000000, 67.510, 162.4838
60.000000, 67.532, 162.0759
60.799999, 67.586, 161.7315
61.500000, 67.637, 161.2628
62.200001, 67.649, 160.7945
63.000000, 67.640, 160.5817
64.000000, 67.665, 160.3972
65.000000, 67.633, 159.7596
66.000000, 67.488, 159.4029
67.000000, 67.361, 159.5496
68.000000, 67.287, 159.4408
69.000000, 67.199, 158.9684
70.000000, 67.103, 158.4649
71.000000, 67.030, 157.9085
72.000000, 66.969, 157.2460
73.000000, 66.906, 156.6129
74.000000, 66.850, 156.0614
75.000000, 66.784, 155.5659
76.199997, 66.705, 155.2155
77.500000, 66.622, 154.7004
78.800003, 66.497, 154.4240
80.000000, 66.444, 154.2074
81.199997, 66.383, 153.3906
82.500000, 66.209, 152.6641
83.800003, 66.084, 152.8318
85.000000, 66.066, 152.6086
86.199997, 65.990, 152.0585
87.500000, 65.900, 152.0638
88.500000, 65.900, 152.0009
90.000000, 65.841, 151.2139
91.199997, 65.715, 151.0678
92.500000, 65.626, 151.4202
93.800003, 65.612, 151.6241
95.000000, 65.599, 151.1599
96.199997, 65.513, 150.5138
97.500000, 65.388, 149.9971
98.800003, 65.271, 149.7380
100.000000, 65.197, 149.4687
101.500000, 65.074, 149.0243
103.000000, 64.945, 148.7836
104.400002, 64.827, 148.2996
106.000000, 64.640, 147.6770
107.500000, 64.502, 147.5785
109.000000, 64.482, 147.5172
110.599998, 64.499, 147.1691
112.000000, 64.506, 147.1168
113.800003, 64.494, 147.2584
115.000000, 64.458, 147.4602
117.199997, 64.342, 147.9854
118.000000, 64.314, 148.1412
120.599998, 64.221, 146.5870
122.000000, 63.970, 145.4891
124.099998, 63.637, 146.1066
125.000000, 63.577, 146.8529
126.500000, 63.594, 148.0544
128.000000, 63.601, 148.3019
131.500000, 63.301, 148.1712
132.000000, 63.233, 147.9613
134.000000, 62.920, 147.4032
136.000000, 62.693, 147.3650
138.000000, 62.595, 147.1949
140.000000, 62.571, 146.6042
143.000000, 62.594, 144.3287
145.000000, 62.377, 143.6212
147.500000, 62.404, 146.6714
150.000000, 62.464, 147.7510
152.500000, 62.308, 150.1974
155.000000, 62.278, 151.8942
157.500000, 62.261, 150.3999
160.000000, 62.119, 147.9681
162.500000, 61.837, 147.0641
165.000000, 61.633, 148.6306
167.500000, 61.570, 149.1105
170.000000, 61.496, 149.9258
172.500000, 61.432, 150.5806
175.000000, 61.162, 150.5959
177.500000, 60.951, 150.4538
180.000000, 60.933, 149.6733
182.500000, 60.889, 150.2910
185.000000, 60.827, 152.1887
187.500000, 60.668, 152.5996
190.000000, 60.465, 152.1212
192.500000, 60.406, 152.3391
195.000000, 60.462, 152.6414
197.500000, 60.387, 153.2271
200.000000, 60.272, 154.0498
203.000000, 60.161, 154.6788
206.000000, 59.982, 155.3655
209.000000, 59.751, 155.6713
212.000000, 59.624, 155.7218
214.000000, 59.627, 156.0739
218.000000, 59.587, 157.8683
220.000000, 59.586, 158.2998
224.000000, 59.661, 158.0292
227.000000, 59.635, 159.3038
230.000000, 59.622, 159.5557
233.000000, 59.874, 157.7489
236.000000, 60.253, 157.7369
240.000000, 60.065, 162.5329
243.000000, 59.486, 164.8569
247.000000, 59.041, 164.4565
250.000000, 59.047, 164.6512
254.000000, 59.071, 165.3442
258.000000, 59.102, 166.2863
262.000000, 59.177, 167.5433
265.000000, 59.128, 168.0354
269.000000, 58.974, 169.1217
272.000000, 58.954, 169.8357
276.000000, 58.941, 171.5883
280.000000, 58.791, 173.0115
285.000000, 58.815, 173.7668
290.000000, 58.998, 175.1430
295.000000, 59.071, 175.5426
300.000000, 59.001, 176.1805
304.000000, 58.990, 176.6538
307.000000, 59.080, 176.3889
311.000000, 59.192, 176.3326
315.000000, 59.280, 177.3182
320.000000, 59.252, 178.3502
325.000000, 59.196, 179.1396
330.000000, 59.211, -179.9528
335.000000, 59.192, -179.5078
340.000000, 59.251, -178.8023
345.000000, 59.386, -178.4188
350.000000, 59.535, -178.5926
355.000000, 59.610, -178.7390
360.000000, 59.763, -178.4819
365.000000, 59.920, -178.1550
370.000000, 59.954, -177.5168
375.000000, 59.896, -177.4308
382.000000, 59.942, -177.4582
387.000000, 59.996, -178.1845
395.000000, 60.093, -177.4746
400.000000, 60.202, -176.9324
406.000000, 60.179, -177.3112
412.000000, 60.142, -177.9216
418.000000, 60.139, -177.5306
425.000000, 60.181, -177.3992
431.000000, 60.200, -177.4222
437.000000, 60.194, -177.1644
444.000000, 60.163, -176.9627
450.000000, 60.163, -176.6523
455.000000, 60.186, -176.4803
462.000000, 60.182, -176.5679
468.000000, 60.163, -176.7060
475.000000, 60.137, -176.7723
482.000000, 60.124, -176.7395
487.000000, 60.120, -176.6568
494.000000, 60.103, -176.4723
500.000000, 60.087, -176.3242
508.000000, 60.077, -176.2223
515.000000, 60.077, -175.9698
522.000000, 60.063, -175.7800
530.000000, 60.037, -175.7481
538.000000, 59.992, -175.6718
545.000000, 59.962, -175.5623
552.000000, 59.941, -175.4077
560.000000, 59.917, -175.2044
570.000000, 59.881, -174.9228
580.000000, 59.851, -174.6573
590.000000, 59.819, -174.3253
600.000000, 59.780, -174.0746
608.000000, 59.752, -173.7981
615.000000, 59.722, -173.5020
622.000000, 59.689, -173.2195
630.000000, 59.658, -172.8523
640.000000, 59.636, -172.4355
650.000000, 59.608, -171.9947
660.000000, 59.579, -171.5239
670.000000, 59.553, -171.1618
680.000000, 59.521, -170.7490
690.000000, 59.488, -170.1703
700.000000, 59.466, -169.6299
710.000000, 59.435, -169.1156
720.000000, 59.398, -168.5385
730.000000, 59.372, -167.9472
740.000000, 59.361, -167.4282
750.000000, 59.355, -166.9415
762.000000, 59.341, -166.2519
775.000000, 59.322, -165.4910
788.000000, 59.310, -164.7492
800.000000, 59.305, -164.0193
812.000000, 59.306, -163.2709
825.000000, 59.313, -162.4678
838.000000, 59.324, -161.6537
850.000000, 59.338, -160.9067
862.000000, 59.355, -160.1461
875.000000, 59.381, -159.3342
885.000000, 59.405, -158.7122
900.000000, 59.448, -157.8028
912.000000, 59.486, -157.0818
925.000000, 59.533, -156.3059
938.000000, 59.586, -155.5425
950.000000, 59.640, -154.8650
962.000000, 59.697, -154.2218
975.000000, 59.761, -153.5541
988.000000, 59.823, -152.8811
1000.000000, 59.882, -152.2462
1015.000000, 59.975, -151.4317
1030.000000, 60.086, -150.6966
1044.000000, 60.193, -150.1257
1060.000000, 60.314, -149.5626
1075.000000, 60.429, -149.1148
1090.000000, 60.543, -148.7468
1106.000000, 60.662, -148.4670
1120.000000, 60.759, -148.3434
1138.000000, 60.866, -148.3005
1150.000000, 60.920, -148.3137
1172.000000, 60.974, -148.2532
1180.000000, 60.985, -148.1559
1206.000000, 61.027, -147.5254
1220.000000, 61.069, -147.0936
1241.000000, 61.155, -146.4910
1250.000000, 61.198, -146.2635
1265.000000, 61.272, -145.9263
1280.000000, 61.347, -145.6368
1315.000000, 61.511, -145.0743
1320.000000, 61.533, -145.0071
1340.000000, 61.617, -144.7574
1360.000000, 61.699, -144.5277
1380.000000, 61.776, -144.3083
1400.000000, 61.850, -144.0902
1430.000000, 61.952, -143.7779
1450.000000, 62.020, -143.5728
1475.000000, 62.102, -143.2937
1500.000000, 62.179, -143.0156
1525.000000, 62.255, -142.7256
1550.000000, 62.332, -142.4455
1575.000000, 62.408, -142.1602
1600.000000, 62.483, -141.8678
1625.000000, 62.559, -141.5698
1650.000000, 62.634, -141.2732
1675.000000, 62.710, -140.9797
1700.000000, 62.784, -140.6682
1725.000000, 62.859, -140.3701
1750.000000, 62.937, -140.0817
1775.000000, 63.015, -139.8034
1800.000000, 63.095, -139.5288
1825.000000, 63.175, -139.2505
1850.000000, 63.257, -138.9803
1875.000000, 63.340, -138.7216
1900.000000, 63.423, -138.4781
1925.000000, 63.506, -138.2365
1950.000000, 63.590, -138.0022
1975.000000, 63.675, -137.7783
2000.000000, 63.761, -137.5679
2030.000000, 63.864, -137.3323
2060.000000, 63.969, -137.1243
2090.000000, 64.076, -136.9328
2120.000000, 64.182, -136.7539
2140.000000, 64.254, -136.6412
2180.000000, 64.398, -136.4442
2200.000000, 64.471, -136.3625
2240.000000, 64.615, -136.2263
2270.000000, 64.724, -136.1469
2300.000000, 64.834, -136.0889
2330.000000, 64.944, -136.0558
2360.000000, 65.054, -136.0443
2400.000000, 65.201, -136.0652
2430.000000, 65.310, -136.1097
2470.000000, 65.452, -136.2171
2500.000000, 65.557, -136.3306
2540.000000, 65.695, -136.5026
2580.000000, 65.830, -136.6985
2620.000000, 65.963, -136.9151
2650.000000, 66.062, -137.0872
2690.000000, 66.195, -137.3285
2720.000000, 66.298, -137.5251
2760.000000, 66.441, -137.8276
2800.000000, 66.587, -138.2135
2850.000000, 66.769, -138.8568
2900.000000, 66.936, -139.6510
2950.000000, 67.084, -140.5461
3000.000000, 67.216, -141.4954
3040.000000, 67.311, -142.2811
3070.000000, 67.377, -142.8844
3110.000000, 67.458, -143.7068
3150.000000, 67.530, -144.5514
3200.000000, 67.610, -145.6347
3250.000000, 67.676, -146.7413
3300.000000, 67.728, -147.8664
3350.000000, 67.764, -149.0005
3400.000000, 67.785, -150.1366
3450.000000, 67.794, -151.2585
3500.000000, 67.792, -152.3334
3550.000000, 67.777, -153.3602
3600.000000, 67.755, -154.3290
3650.000000, 67.732, -155.2437
3700.000000, 67.713, -156.1237
3750.000000, 67.699, -157.0227
3820.000000, 67.680, -158.4292
3870.000000, 67.651, -159.5470
3950.000000, 67.562, -161.4230
4000.000000, 67.478, -162.5657
4060.000000, 67.355, -163.8515
4120.000000, 67.214, -165.0369
4180.000000, 67.060, -166.1167
4250.000000, 66.866, -167.2474
4310.000000, 66.692, -168.1098
4370.000000, 66.513, -168.8814
4440.000000, 66.297, -169.6797
4500.000000, 66.108, -170.2774
4550.000000, 65.947, -170.7217
4620.000000, 65.720, -171.2607
4680.000000, 65.521, -171.6391
4750.000000, 65.285, -171.9799
4820.000000, 65.047, -172.2023
4870.000000, 64.877, -172.2842
4940.000000, 64.643, -172.3022
5000.000000, 64.448, -172.2429
5080.000000, 64.194, -172.0680
5150.000000, 63.979, -171.8439
5220.000000, 63.768, -171.5634
5300.000000, 63.528, -171.1523
5380.000000, 63.288, -170.5898
5450.000000, 63.085, -169.9070
5520.000000, 62.912, -169.0199
5600.000000, 62.776, -167.9643
5700.000000, 62.660, -167.1044
5800.000000, 62.517, -166.5170
5900.000000, 62.360, -165.8275
6000.000000, 62.215, -165.0482
6080.000000, 62.111, -164.4032
6150.000000, 62.028, -163.8386
6220.000000, 61.953, -163.2764
6300.000000, 61.873, -162.6308
6400.000000, 61.788, -161.8053
6500.000000, 61.721, -160.9493
6600.000000, 61.678, -160.0746
6700.000000, 61.664, -159.1923
6800.000000, 61.684, -158.3312
6900.000000, 61.741, -157.5034
7000.000000, 61.844, -156.7514
7100.000000, 62.000, -156.1667
7200.000000, 62.217, -155.8485
7300.000000, 62.492, -155.9305
7400.000000, 62.815, -156.5708
7500.000000, 63.168, -157.8832
7620.000000, 63.605, -160.4847
7750.000000, 64.042, -164.7243
7880.000000, 64.365, -170.4658
8000.000000, 64.485, -176.9599
8120.000000, 64.365, 175.7427
8250.000000, 63.915, 167.5943
8380.000000, 63.123, 159.9948
8500.000000, 62.123, 154.1725
8620.000000, 60.937, 150.0405
8750.000000, 59.568, 147.7989
8850.000000, 58.543, 147.6202
9000.000000, 57.191, 149.4550
9120.000000, 56.345, 152.0615
9250.000000, 55.692, 155.1487
9380.000000, 55.273, 157.7646
9500.000000, 55.016, 159.3593
9620.000000, 54.806, 160.0931
9750.000000, 54.562, 160.1184
9880.000000, 54.260, 159.7034
10000.000000, 53.927, 159.2331
10150.000000, 53.458, 158.8036
10300.000000, 52.962, 158.6891
10440.000000, 52.503, 158.8929
10600.000000, 52.006, 159.4182
10750.000000, 51.585, 160.1800
10900.000000, 51.228, 161.1465
11060.000000, 50.930, 162.1731
11200.000000, 50.727, 162.8828
11380.000000, 50.523, 163.5702
11500.000000, 50.423, 163.9240
11720.000000, 50.319, 164.3222
11800.000000, 50.304, 164.3571
12060.000000, 50.359, 163.9838
12200.000000, 50.450, 163.4381
12410.000000, 50.664, 162.1080
12500.000000, 50.784, 161.3328
12650.000000, 51.025, 159.7441
12800.000000, 51.320, 157.7569
13150.000000, 52.268, 151.2661
13200.000000, 52.436, 150.0726
13400.000000, 53.206, 144.4346
13600.000000, 54.137, 136.9875
13800.000000, 55.189, 126.9166
14000.000000, 56.198, 113.5558
14300.000000, 57.071, 87.9846
14500.000000, 57.003, 69.4823
14750.000000, 56.471, 47.5373
15000.000000, 55.976, 26.2825
15250.000000, 55.567, 3.3438
15500.000000, 54.971, -21.8889
15750.000000, 54.013, -48.8129
16000.000000, 52.631, -76.4585
16250.000000, 50.856, -103.8928
16500.000000, 48.802, -130.6176
16750.000000, 46.605, -156.5267
17000.000000, 44.365, 178.0255
17250.000000, 42.156, 152.5123
17500.000000, 40.007, 126.4593
17750.000000, 37.911, 99.1587
18000.000000, 35.859, 70.0543
18250.000000, 33.836, 38.4229
18500.000000, 31.811, 3.6288
18750.000000, 29.731, -35.3264
19000.000000, 27.432, -79.4123
19250.000000, 24.732, -128.5944
19500.000000, 21.592, 176.2437
19750.000000, 18.151, 112.4495
20000.000000, 15.350, 46.5308
