* Measurement data measured by REW V5.31.3
* Source: USB-C to 3.5mm Headphone Jack Adapter, USB-C to 3.5mm Headphone Jack Adapter, 0, volume: 0.264
* Format: 256k Log Swept Sine, 1 sweep at -12.0 dBFS with no timing reference
* Dated: Feb 24, 2025 12:36:51 PM
* REW Settings:
*  C-weighting compensation: Off
*  Target level: 75.0 dB
* Note: ; 
* Measurement: Kiwi Ears KE4 L
* Smoothing: 1/24 octave
* Frequency Step: 1/48 octave
* Start Frequency: 1.000 Hz
*
* Freq(Hz), SPL(dB), Phase(degrees)
1.000000, 42.013, -157.8061
1.015000, 42.260, -159.0605
1.030000, 42.504, -160.2841
1.044000, 42.727, -161.4011
1.060000, 42.976, -162.6517
1.075000, 43.203, -163.8021
1.090000, 43.423, -164.9346
1.106000, 43.652, -166.1268
1.120000, 43.848, -167.1598
1.138000, 44.097, -168.4740
1.150000, 44.262, -169.3408
1.172000, 44.559, -170.9077
1.180000, 44.666, -171.4698
1.206000, 45.009, -173.2669
1.220000, 45.191, -174.2146
1.241000, 45.460, -175.6087
1.250000, 45.574, -176.1958
1.265000, 45.762, -177.1603
1.280000, 45.948, -178.1071
1.315000, 46.375, 179.7533
1.320000, 46.435, 179.4556
1.340000, 46.673, 178.2847
1.360000, 46.908, 177.1453
1.380000, 47.139, 176.0369
1.400000, 47.367, 174.9589
1.430000, 47.702, 173.3975
1.450000, 47.922, 172.3921
1.475000, 48.191, 171.1711
1.500000, 48.455, 169.9810
1.525000, 48.712, 168.8175
1.550000, 48.962, 167.6791
1.575000, 49.207, 166.5648
1.600000, 49.446, 165.4734
1.625000, 49.680, 164.4037
1.650000, 49.909, 163.3544
1.675000, 50.134, 162.3241
1.700000, 50.354, 161.3116
1.725000, 50.570, 160.3154
1.750000, 50.783, 159.3342
1.775000, 50.993, 158.3668
1.800000, 51.199, 157.4115
1.825000, 51.403, 156.4666
1.850000, 51.604, 155.5289
1.875000, 51.801, 154.5958
1.900000, 51.993, 153.6678
1.925000, 52.181, 152.7466
1.950000, 52.364, 151.8336
1.975000, 52.544, 150.9304
2.000000, 52.721, 150.0378
2.030000, 52.928, 148.9822
2.060000, 53.131, 147.9449
2.090000, 53.330, 146.9265
2.120000, 53.526, 145.9279
2.140000, 53.654, 145.2733
2.180000, 53.907, 143.9905
2.200000, 54.032, 143.3608
2.240000, 54.275, 142.1149
2.270000, 54.453, 141.1888
2.300000, 54.626, 140.2708
2.330000, 54.796, 139.3620
2.360000, 54.962, 138.4640
2.400000, 55.177, 137.2854
2.430000, 55.336, 136.4167
2.470000, 55.542, 135.2804
2.500000, 55.694, 134.4455
2.540000, 55.893, 133.3557
2.580000, 56.088, 132.2895
2.620000, 56.277, 131.2377
2.650000, 56.416, 130.4561
2.690000, 56.597, 129.4248
2.720000, 56.729, 128.6604
2.760000, 56.901, 127.6546
2.800000, 57.069, 126.6658
2.850000, 57.274, 125.4555
2.900000, 57.474, 124.2757
2.950000, 57.670, 123.1236
3.000000, 57.859, 121.9887
3.040000, 58.006, 121.0911
3.070000, 58.114, 120.4245
3.110000, 58.256, 119.5460
3.150000, 58.394, 118.6804
3.200000, 58.562, 117.6188
3.250000, 58.727, 116.5819
3.300000, 58.888, 115.5699
3.350000, 59.046, 114.5775
3.400000, 59.199, 113.5995
3.450000, 59.347, 112.6362
3.500000, 59.492, 111.6883
3.550000, 59.634, 110.7571
3.600000, 59.772, 109.8434
3.650000, 59.908, 108.9477
3.700000, 60.041, 108.0673
3.750000, 60.171, 107.1989
3.820000, 60.347, 106.0021
3.870000, 60.470, 105.1620
3.950000, 60.661, 103.8459
4.000000, 60.777, 103.0420
4.060000, 60.914, 102.0950
4.120000, 61.047, 101.1633
4.180000, 61.177, 100.2456
4.250000, 61.324, 99.1934
4.310000, 61.447, 98.3081
4.370000, 61.567, 97.4386
4.440000, 61.704, 96.4422
4.500000, 61.818, 95.6007
4.550000, 61.912, 94.9080
4.620000, 62.039, 93.9522
4.680000, 62.145, 93.1469
4.750000, 62.267, 92.2241
4.820000, 62.385, 91.3175
4.870000, 62.467, 90.6782
4.940000, 62.580, 89.7945
5.000000, 62.674, 89.0485
5.080000, 62.796, 88.0713
5.150000, 62.901, 87.2328
5.220000, 63.002, 86.4072
5.300000, 63.115, 85.4781
5.380000, 63.224, 84.5656
5.450000, 63.318, 83.7816
5.520000, 63.409, 83.0109
5.600000, 63.510, 82.1444
5.700000, 63.633, 81.0811
5.800000, 63.751, 80.0413
5.900000, 63.866, 79.0252
6.000000, 63.977, 78.0301
6.080000, 64.064, 77.2483
6.150000, 64.137, 76.5747
6.220000, 64.209, 75.9111
6.300000, 64.290, 75.1641
6.400000, 64.388, 74.2458
6.500000, 64.482, 73.3447
6.600000, 64.574, 72.4611
6.700000, 64.663, 71.5936
6.800000, 64.750, 70.7410
6.900000, 64.833, 69.9039
7.000000, 64.914, 69.0822
7.100000, 64.993, 68.2745
7.200000, 65.069, 67.4807
7.300000, 65.143, 66.7014
7.400000, 65.215, 65.9363
7.500000, 65.284, 65.1845
7.620000, 65.365, 64.2999
7.750000, 65.449, 63.3638
7.880000, 65.530, 62.4493
8.000000, 65.603, 61.6236
8.120000, 65.673, 60.8153
8.250000, 65.747, 59.9581
8.380000, 65.819, 59.1184
8.500000, 65.883, 58.3580
8.620000, 65.946, 57.6107
8.750000, 66.012, 56.8145
8.850000, 66.062, 56.2106
9.000000, 66.134, 55.3177
9.120000, 66.190, 54.6143
9.250000, 66.249, 53.8621
9.380000, 66.306, 53.1197
9.500000, 66.356, 52.4440
9.620000, 66.405, 51.7773
9.750000, 66.455, 51.0652
9.880000, 66.504, 50.3654
10.000000, 66.546, 49.7307
10.150000, 66.597, 48.9527
10.300000, 66.646, 48.1938
10.440000, 66.689, 47.5028
10.600000, 66.737, 46.7332
10.750000, 66.780, 46.0314
10.900000, 66.822, 45.3471
11.060000, 66.867, 44.6342
11.200000, 66.905, 44.0235
11.380000, 66.954, 43.2518
11.500000, 66.986, 42.7442
11.720000, 67.044, 41.8234
11.800000, 67.065, 41.4904
12.060000, 67.131, 40.4131
12.200000, 67.165, 39.8349
12.410000, 67.213, 38.9707
12.500000, 67.232, 38.6022
12.650000, 67.262, 37.9911
12.800000, 67.290, 37.3864
13.150000, 67.345, 36.0120
13.200000, 67.351, 35.8213
13.400000, 67.376, 35.0750
13.600000, 67.397, 34.3590
13.800000, 67.416, 33.6765
14.000000, 67.433, 33.0285
14.300000, 67.459, 32.1183
14.500000, 67.477, 31.5473
14.750000, 67.504, 30.8625
15.000000, 67.533, 30.1962
15.250000, 67.567, 29.5317
15.500000, 67.602, 28.8556
15.750000, 67.637, 28.1596
16.000000, 67.670, 27.4429
16.250000, 67.696, 26.7145
16.500000, 67.716, 25.9889
16.750000, 67.728, 25.2853
17.000000, 67.734, 24.6211
17.250000, 67.738, 24.0068
17.500000, 67.741, 23.4437
17.750000, 67.748, 22.9217
18.000000, 67.759, 22.4235
18.250000, 67.774, 21.9298
18.500000, 67.792, 21.4247
18.750000, 67.811, 20.9023
19.000000, 67.827, 20.3655
19.250000, 67.839, 19.8260
19.500000, 67.847, 19.2977
19.750000, 67.853, 18.7906
20.000000, 67.857, 18.3083
20.299999, 67.864, 17.7545
20.600000, 67.874, 17.2111
20.900000, 67.884, 16.6624
21.200001, 67.893, 16.1046
21.400000, 67.897, 15.7328
21.799999, 67.899, 15.0125
22.000000, 67.898, 14.6716
22.400000, 67.898, 14.0278
22.700001, 67.902, 13.5598
23.000000, 67.908, 13.0839
23.299999, 67.913, 12.5924
23.600000, 67.914, 12.0942
24.000000, 67.909, 11.4554
24.299999, 67.903, 11.0147
24.700001, 67.900, 10.4664
25.000000, 67.904, 10.0521
25.400000, 67.912, 9.4511
25.799999, 67.910, 8.8029
26.200001, 67.893, 8.1829
26.500000, 67.874, 7.7868
26.900000, 67.856, 7.3589
27.200001, 67.854, 7.0692
27.600000, 67.867, 6.6292
28.000000, 67.880, 6.0742
28.500000, 67.871, 5.3066
29.000000, 67.837, 4.6690
29.500000, 67.814, 4.2235
30.000000, 67.823, 3.7723
30.400000, 67.837, 3.2771
30.700001, 67.837, 2.8384
31.100000, 67.816, 2.2605
31.500000, 67.780, 1.7996
32.000000, 67.746, 1.4175
32.500000, 67.745, 1.0724
33.000000, 67.759, 0.5595
33.500000, 67.755, -0.1112
34.000000, 67.718, -0.7488
34.500000, 67.670, -1.1951
35.000000, 67.640, -1.4777
35.500000, 67.641, -1.7731
36.000000, 67.654, -2.2360
36.500000, 67.651, -2.8534
37.000000, 67.616, -3.4572
37.500000, 67.566, -3.8815
38.200001, 67.529, -4.2283
38.700001, 67.533, -4.5488
39.500000, 67.523, -5.3475
40.000000, 67.490, -5.8210
40.599998, 67.453, -6.2380
41.200001, 67.436, -6.6537
41.799999, 67.415, -7.1788
42.500000, 67.365, -7.7402
43.099998, 67.328, -8.0767
43.700001, 67.313, -8.4307
44.400002, 67.292, -8.9890
45.000000, 67.255, -9.4504
45.500000, 67.224, -9.7465
46.200001, 67.201, -10.1353
46.799999, 67.187, -10.5735
47.500000, 67.153, -11.1607
48.200001, 67.099, -11.6756
48.700001, 67.057, -11.9648
49.400002, 67.000, -12.2506
50.000000, 66.964, -12.3793
50.799999, 66.962, -12.5527
51.500000, 66.990, -13.0213
52.200001, 66.985, -13.8528
53.000000, 66.897, -14.7887
53.799999, 66.769, -15.2356
54.500000, 66.690, -15.2858
55.200001, 66.654, -15.3187
56.000000, 66.639, -15.5402
57.000000, 66.611, -15.9983
58.000000, 66.577, -16.4357
59.000000, 66.555, -16.9507
60.000000, 66.515, -17.6468
60.799999, 66.455, -18.1741
61.500000, 66.396, -18.5169
62.200001, 66.344, -18.7820
63.000000, 66.298, -19.0831
64.000000, 66.249, -19.5442
65.000000, 66.192, -20.0851
66.000000, 66.122, -20.6121
67.000000, 66.046, -21.0428
68.000000, 65.974, -21.3971
69.000000, 65.908, -21.7139
70.000000, 65.849, -22.0453
71.000000, 65.787, -22.4405
72.000000, 65.713, -22.8277
73.000000, 65.639, -23.1364
74.000000, 65.574, -23.4103
75.000000, 65.517, -23.6415
76.199997, 65.464, -23.8884
77.500000, 65.406, -24.1658
78.800003, 65.339, -24.3969
80.000000, 65.249, -24.5970
81.199997, 65.141, -24.6067
82.500000, 65.044, -24.6635
83.800003, 64.938, -24.9105
85.000000, 64.849, -25.1945
86.199997, 64.763, -25.6381
87.500000, 64.661, -25.9400
88.500000, 64.618, -26.0530
90.000000, 64.558, -26.5521
91.199997, 64.461, -26.8607
92.500000, 64.355, -26.8721
93.800003, 64.272, -26.8669
95.000000, 64.202, -26.9358
96.199997, 64.136, -27.0805
97.500000, 64.057, -27.2692
98.800003, 63.975, -27.3969
100.000000, 63.900, -27.4754
101.500000, 63.802, -27.5669
103.000000, 63.698, -27.6238
104.400002, 63.603, -27.6768
106.000000, 63.493, -27.7549
107.500000, 63.397, -27.8025
109.000000, 63.303, -27.8554
110.599998, 63.200, -27.8547
112.000000, 63.112, -27.8015
113.800003, 63.003, -27.7092
115.000000, 62.927, -27.6311
117.199997, 62.796, -27.3733
118.000000, 62.754, -27.2944
120.599998, 62.613, -27.0449
122.000000, 62.550, -26.9028
124.099998, 62.449, -26.8102
125.000000, 62.403, -26.7179
126.500000, 62.333, -26.5596
128.000000, 62.259, -26.4025
131.500000, 62.096, -25.9315
132.000000, 62.072, -25.8716
134.000000, 61.981, -25.5971
136.000000, 61.894, -25.3479
138.000000, 61.810, -25.0361
140.000000, 61.736, -24.7535
143.000000, 61.620, -24.3065
145.000000, 61.546, -24.0464
147.500000, 61.457, -23.6465
150.000000, 61.369, -23.3346
152.500000, 61.285, -22.8711
155.000000, 61.196, -22.4615
157.500000, 61.121, -21.9648
160.000000, 61.046, -21.5364
162.500000, 60.971, -21.0822
165.000000, 60.891, -20.5612
167.500000, 60.820, -20.1292
170.000000, 60.763, -19.7756
172.500000, 60.717, -19.2689
175.000000, 60.680, -18.6136
177.500000, 60.624, -18.1064
180.000000, 60.555, -17.5948
182.500000, 60.516, -17.0679
185.000000, 60.488, -16.6185
187.500000, 60.451, -16.1646
190.000000, 60.420, -15.7133
192.500000, 60.400, -15.2655
195.000000, 60.381, -14.8019
197.500000, 60.359, -14.3434
200.000000, 60.338, -13.9128
203.000000, 60.321, -13.4137
206.000000, 60.306, -12.8943
209.000000, 60.288, -12.3651
212.000000, 60.277, -11.8798
214.000000, 60.273, -11.5608
218.000000, 60.266, -10.9346
220.000000, 60.260, -10.6403
224.000000, 60.257, -10.1144
227.000000, 60.262, -9.7025
230.000000, 60.267, -9.2826
233.000000, 60.271, -8.8825
236.000000, 60.275, -8.5079
240.000000, 60.285, -8.0492
243.000000, 60.295, -7.7069
247.000000, 60.305, -7.2563
250.000000, 60.311, -6.9543
254.000000, 60.324, -6.5750
258.000000, 60.339, -6.2235
262.000000, 60.359, -5.9002
265.000000, 60.375, -5.6239
269.000000, 60.390, -5.3602
272.000000, 60.401, -5.1382
276.000000, 60.425, -4.7927
280.000000, 60.436, -4.5797
285.000000, 60.450, -4.3025
290.000000, 60.477, -3.9399
295.000000, 60.499, -3.5825
300.000000, 60.513, -3.3318
304.000000, 60.525, -3.2354
307.000000, 60.544, -3.1872
311.000000, 60.566, -2.9465
315.000000, 60.567, -2.7627
320.000000, 60.580, -2.6925
325.000000, 60.600, -2.4727
330.000000, 60.607, -2.2898
335.000000, 60.618, -2.1032
340.000000, 60.637, -1.9774
345.000000, 60.650, -1.9181
350.000000, 60.655, -1.8696
355.000000, 60.667, -1.7848
360.000000, 60.685, -1.6266
365.000000, 60.690, -1.4315
370.000000, 60.687, -1.3712
375.000000, 60.687, -1.3023
382.000000, 60.685, -1.1986
387.000000, 60.684, -1.1150
395.000000, 60.684, -1.0117
400.000000, 60.682, -0.9755
406.000000, 60.688, -0.9186
412.000000, 60.685, -0.7698
418.000000, 60.673, -0.6675
425.000000, 60.660, -0.4899
431.000000, 60.648, -0.4979
437.000000, 60.649, -0.4314
444.000000, 60.625, -0.4126
450.000000, 60.633, -0.4502
455.000000, 60.623, -0.1826
462.000000, 60.576, -0.1078
468.000000, 60.556, -0.2003
475.000000, 60.533, -0.1810
482.000000, 60.481, 0.0035
487.000000, 60.445, 0.2551
494.000000, 60.429, 0.6492
500.000000, 60.437, 0.8562
508.000000, 60.436, 0.9835
515.000000, 60.424, 1.0984
522.000000, 60.406, 1.2961
530.000000, 60.384, 1.4984
538.000000, 60.358, 1.5968
545.000000, 60.341, 1.6285
552.000000, 60.333, 1.7726
560.000000, 60.301, 2.0583
570.000000, 60.251, 2.3027
580.000000, 60.216, 2.5461
590.000000, 60.170, 2.8134
600.000000, 60.137, 3.1897
608.000000, 60.117, 3.4072
615.000000, 60.091, 3.5745
622.000000, 60.062, 3.7734
630.000000, 60.032, 4.0215
640.000000, 59.994, 4.3452
650.000000, 59.957, 4.6873
660.000000, 59.921, 5.0526
670.000000, 59.884, 5.4211
680.000000, 59.846, 5.7887
690.000000, 59.810, 6.1594
700.000000, 59.777, 6.5574
710.000000, 59.743, 6.9854
720.000000, 59.709, 7.4153
730.000000, 59.676, 7.8468
740.000000, 59.646, 8.2791
750.000000, 59.613, 8.6969
762.000000, 59.578, 9.2607
775.000000, 59.544, 9.9364
788.000000, 59.510, 10.5514
800.000000, 59.486, 11.1635
812.000000, 59.462, 11.8180
825.000000, 59.426, 12.4113
838.000000, 59.396, 13.0896
850.000000, 59.368, 13.7714
862.000000, 59.343, 14.4503
875.000000, 59.321, 15.2178
885.000000, 59.307, 15.8296
900.000000, 59.297, 16.7896
912.000000, 59.296, 17.5370
925.000000, 59.298, 18.3511
938.000000, 59.306, 19.1964
950.000000, 59.318, 19.9688
962.000000, 59.337, 20.7082
975.000000, 59.366, 21.5050
988.000000, 59.400, 22.2914
1000.000000, 59.437, 23.0020
1015.000000, 59.488, 23.8684
1030.000000, 59.543, 24.6948
1044.000000, 59.602, 25.4131
1060.000000, 59.675, 26.1937
1075.000000, 59.748, 26.8538
1090.000000, 59.818, 27.4371
1106.000000, 59.888, 28.0464
1120.000000, 59.951, 28.5722
1138.000000, 60.036, 29.1926
1150.000000, 60.091, 29.5651
1172.000000, 60.188, 30.1823
1180.000000, 60.222, 30.3913
1206.000000, 60.325, 31.0201
1220.000000, 60.378, 31.3358
1241.000000, 60.450, 31.7747
1250.000000, 60.478, 31.9529
1265.000000, 60.521, 32.2361
1280.000000, 60.562, 32.5213
1315.000000, 60.646, 33.2259
1320.000000, 60.657, 33.3243
1340.000000, 60.699, 33.7156
1360.000000, 60.736, 34.1097
1380.000000, 60.770, 34.5122
1400.000000, 60.801, 34.9317
1430.000000, 60.844, 35.6022
1450.000000, 60.871, 36.0728
1475.000000, 60.903, 36.6912
1500.000000, 60.936, 37.3396
1525.000000, 60.969, 38.0167
1550.000000, 61.003, 38.7176
1575.000000, 61.039, 39.4402
1600.000000, 61.078, 40.1824
1625.000000, 61.121, 40.9442
1650.000000, 61.169, 41.7284
1675.000000, 61.222, 42.5211
1700.000000, 61.280, 43.3042
1725.000000, 61.341, 44.0759
1750.000000, 61.404, 44.8456
1775.000000, 61.469, 45.6151
1800.000000, 61.538, 46.3889
1825.000000, 61.609, 47.1627
1850.000000, 61.685, 47.9417
1875.000000, 61.766, 48.7221
1900.000000, 61.851, 49.4991
1925.000000, 61.941, 50.2647
1950.000000, 62.035, 51.0208
1975.000000, 62.134, 51.7667
2000.000000, 62.237, 52.5023
2030.000000, 62.367, 53.3606
2060.000000, 62.503, 54.1885
2090.000000, 62.645, 54.9831
2120.000000, 62.793, 55.7452
2140.000000, 62.895, 56.2335
2180.000000, 63.108, 57.1611
2200.000000, 63.218, 57.5965
2240.000000, 63.445, 58.4070
2270.000000, 63.622, 58.9598
2300.000000, 63.804, 59.4592
2330.000000, 63.992, 59.9000
2360.000000, 64.186, 60.2736
2400.000000, 64.451, 60.6500
2430.000000, 64.653, 60.8259
2470.000000, 64.922, 60.9187
2500.000000, 65.122, 60.8899
2540.000000, 65.383, 60.7347
2580.000000, 65.639, 60.4479
2620.000000, 65.886, 60.0334
2650.000000, 66.066, 59.6437
2690.000000, 66.297, 59.0283
2720.000000, 66.464, 58.4987
2760.000000, 66.678, 57.7084
2800.000000, 66.884, 56.8315
2850.000000, 67.136, 55.5485
2900.000000, 67.367, 53.9784
2950.000000, 67.558, 52.1489
3000.000000, 67.697, 50.1361
3040.000000, 67.769, 48.4616
3070.000000, 67.798, 47.2041
3110.000000, 67.808, 45.5605
3150.000000, 67.788, 43.9836
3200.000000, 67.727, 42.1349
3250.000000, 67.632, 40.4491
3300.000000, 67.511, 38.9426
3350.000000, 67.367, 37.6124
3400.000000, 67.201, 36.4887
3450.000000, 67.020, 35.6197
3500.000000, 66.837, 35.0408
3550.000000, 66.669, 34.7272
3600.000000, 66.528, 34.5624
3650.000000, 66.408, 34.4377
3700.000000, 66.300, 34.3341
3750.000000, 66.202, 34.2625
3820.000000, 66.084, 34.2053
3870.000000, 66.015, 34.1735
3950.000000, 65.928, 34.0797
4000.000000, 65.887, 33.9589
4060.000000, 65.848, 33.7180
4120.000000, 65.813, 33.3463
4180.000000, 65.775, 32.8367
4250.000000, 65.713, 32.0934
4310.000000, 65.639, 31.3795
4370.000000, 65.543, 30.6577
4440.000000, 65.405, 29.8872
4500.000000, 65.274, 29.3484
4550.000000, 65.164, 29.0018
4620.000000, 65.024, 28.6364
4680.000000, 64.924, 28.3525
4750.000000, 64.832, 27.9265
4820.000000, 64.754, 27.2845
4870.000000, 64.695, 26.6600
4940.000000, 64.592, 25.5673
5000.000000, 64.471, 24.4794
5080.000000, 64.253, 22.9399
5150.000000, 64.007, 21.6367
5220.000000, 63.715, 20.4837
5300.000000, 63.336, 19.4543
5380.000000, 62.927, 18.7940
5450.000000, 62.558, 18.5366
5520.000000, 62.187, 18.5802
5600.000000, 61.775, 18.9830
5700.000000, 61.294, 19.9551
5800.000000, 60.871, 21.3395
5900.000000, 60.515, 22.9818
6000.000000, 60.228, 24.7131
6080.000000, 60.038, 26.0897
6150.000000, 59.895, 27.2653
6220.000000, 59.769, 28.4124
6300.000000, 59.638, 29.7074
6400.000000, 59.493, 31.3692
6500.000000, 59.374, 33.1785
6600.000000, 59.300, 35.1989
6700.000000, 59.295, 37.3901
6800.000000, 59.377, 39.5801
6900.000000, 59.539, 41.6074
7000.000000, 59.774, 43.4360
7100.000000, 60.086, 45.0231
7200.000000, 60.477, 46.2227
7300.000000, 60.937, 46.8853
7400.000000, 61.454, 46.9572
7500.000000, 62.034, 46.2599
7620.000000, 62.738, 43.9196
7750.000000, 63.374, 39.7604
7880.000000, 63.810, 34.4403
8000.000000, 63.986, 28.9798
8120.000000, 63.930, 23.6254
8250.000000, 63.650, 18.6710
8380.000000, 63.239, 15.1379
8500.000000, 62.858, 13.1974
8620.000000, 62.561, 12.2097
8750.000000, 62.384, 11.6520
8850.000000, 62.350, 11.1467
9000.000000, 62.393, 9.6636
9120.000000, 62.425, 7.7487
9250.000000, 62.388, 5.1940
9380.000000, 62.254, 2.4980
9500.000000, 62.048, 0.1305
9620.000000, 61.776, -1.9714
9750.000000, 61.424, -3.8289
9880.000000, 61.033, -5.1571
10000.000000, 60.658, -5.8785
10150.000000, 60.201, -6.1128
10300.000000, 59.791, -5.7120
10440.000000, 59.469, -4.9379
10600.000000, 59.176, -3.7971
10750.000000, 58.961, -2.6127
10900.000000, 58.797, -1.3495
11060.000000, 58.677, 0.0518
11200.000000, 58.619, 1.2905
11380.000000, 58.609, 2.8605
11500.000000, 58.646, 3.8654
11720.000000, 58.821, 5.5585
11800.000000, 58.925, 6.0825
12060.000000, 59.442, 7.0295
12200.000000, 59.831, 6.7355
12410.000000, 60.519, 4.6190
12500.000000, 60.826, 2.9338
12650.000000, 61.296, -1.0494
12800.000000, 61.640, -6.4680
13150.000000, 61.503, -22.3653
13200.000000, 61.359, -24.6305
13400.000000, 60.529, -32.7419
13600.000000, 59.431, -38.7324
13800.000000, 58.250, -42.4709
14000.000000, 57.129, -44.3610
14300.000000, 55.713, -44.9909
14500.000000, 54.978, -44.6689
14750.000000, 54.294, -44.0538
15000.000000, 53.863, -43.6580
15250.000000, 53.674, -43.8920
15500.000000, 53.720, -45.1353
15750.000000, 53.990, -47.7927
16000.000000, 54.468, -52.3369
16250.000000, 55.109, -59.3270
16500.000000, 55.831, -69.2842
16750.000000, 56.500, -82.5298
17000.000000, 56.957, -98.9826
17250.000000, 57.069, -118.0903
17500.000000, 56.798, -139.1053
17750.000000, 56.192, -161.6120
18000.000000, 55.321, 174.1604
18250.000000, 54.175, 147.6021
18500.000000, 52.645, 118.2962
18750.000000, 50.573, 86.3687
19000.000000, 47.850, 52.3461
19250.000000, 44.457, 16.7003
19500.000000, 40.448, -20.5996
19750.000000, 35.972, -60.4214
20000.000000, 32.115, -98.6171
