* Measurement data measured by REW V5.31.3
* Source: USB-C to 3.5mm Headphone Jack Adapter, USB-C to 3.5mm Headphone Jack Adapter, 0, volume: 0.470
* Format: 256k Log Swept Sine, 1 sweep at -12.0 dBFS with no timing reference
* Dated: Feb 2, 2025 9:26:37 AM
* REW Settings:
*  C-weighting compensation: Off
*  Target level: 75.0 dB
* Note: ; 
* Measurement: Standard L
* Smoothing: 1/24 octave
* Frequency Step: 1/48 octave
* Start Frequency: 1.000 Hz
*
* Freq(Hz), SPL(dB), Phase(degrees)
1.000000, 88.665, 0.5315
1.015000, 88.862, -0.1824
1.030000, 89.057, -0.8951
1.044000, 89.239, -1.5603
1.060000, 89.444, -2.3217
1.075000, 89.636, -3.0380
1.090000, 89.826, -3.7575
1.106000, 90.028, -4.5291
1.120000, 90.203, -5.2064
1.138000, 90.423, -6.0778
1.150000, 90.568, -6.6582
1.172000, 90.830, -7.7189
1.180000, 90.923, -8.1031
1.206000, 91.223, -9.3442
1.220000, 91.381, -10.0068
1.241000, 91.615, -10.9920
1.250000, 91.714, -11.4108
1.265000, 91.877, -12.1037
1.280000, 92.038, -12.7902
1.315000, 92.406, -14.3657
1.320000, 92.458, -14.5876
1.340000, 92.664, -15.4675
1.360000, 92.867, -16.3346
1.380000, 93.067, -17.1890
1.400000, 93.265, -18.0307
1.430000, 93.558, -19.2703
1.450000, 93.751, -20.0819
1.475000, 93.989, -21.0812
1.500000, 94.223, -22.0662
1.525000, 94.452, -23.0381
1.550000, 94.676, -23.9976
1.575000, 94.895, -24.9451
1.600000, 95.110, -25.8814
1.625000, 95.321, -26.8072
1.650000, 95.528, -27.7234
1.675000, 95.731, -28.6309
1.700000, 95.931, -29.5307
1.725000, 96.127, -30.4238
1.750000, 96.321, -31.3113
1.775000, 96.512, -32.1943
1.800000, 96.700, -33.0739
1.825000, 96.886, -33.9515
1.850000, 97.069, -34.8288
1.875000, 97.249, -35.7069
1.900000, 97.425, -36.5845
1.925000, 97.598, -37.4601
1.950000, 97.767, -38.3321
1.975000, 97.934, -39.1993
2.000000, 98.097, -40.0605
2.030000, 98.290, -41.0850
2.060000, 98.478, -42.0985
2.090000, 98.663, -43.1003
2.120000, 98.845, -44.0898
2.140000, 98.965, -44.7425
2.180000, 99.200, -46.0320
2.200000, 99.315, -46.6700
2.240000, 99.542, -47.9410
2.270000, 99.708, -48.8922
2.300000, 99.870, -49.8402
2.330000, 100.028, -50.7832
2.360000, 100.183, -51.7198
2.400000, 100.385, -52.9561
2.430000, 100.533, -53.8725
2.470000, 100.726, -55.0783
2.500000, 100.868, -55.9698
2.540000, 101.053, -57.1411
2.580000, 101.234, -58.2964
2.620000, 101.410, -59.4457
2.650000, 101.539, -60.3055
2.690000, 101.706, -61.4469
2.720000, 101.829, -62.2975
2.760000, 101.988, -63.4219
2.800000, 102.143, -64.5329
2.850000, 102.331, -65.8995
2.900000, 102.514, -67.2390
2.950000, 102.691, -68.5554
3.000000, 102.863, -69.8634
3.040000, 102.995, -70.9061
3.070000, 103.091, -71.6842
3.110000, 103.217, -72.7141
3.150000, 103.339, -73.7327
3.200000, 103.487, -74.9863
3.250000, 103.630, -76.2139
3.300000, 103.769, -77.4153
3.350000, 103.904, -78.6006
3.400000, 104.033, -79.7777
3.450000, 104.157, -80.9445
3.500000, 104.276, -82.0968
3.550000, 104.391, -83.2306
3.600000, 104.502, -84.3422
3.650000, 104.610, -85.4296
3.700000, 104.714, -86.4981
3.750000, 104.814, -87.5555
3.820000, 104.948, -89.0181
3.870000, 105.038, -90.0458
3.950000, 105.177, -91.6513
4.000000, 105.260, -92.6261
4.060000, 105.356, -93.7682
4.120000, 105.448, -94.8893
4.180000, 105.535, -95.9922
4.250000, 105.631, -97.2523
4.310000, 105.710, -98.3058
4.370000, 105.787, -99.3315
4.440000, 105.872, -100.4949
4.500000, 105.942, -101.4696
4.550000, 105.998, -102.2672
4.620000, 106.073, -103.3602
4.680000, 106.135, -104.2736
4.750000, 106.205, -105.3101
4.820000, 106.273, -106.3163
4.870000, 106.320, -107.0188
4.940000, 106.383, -107.9812
5.000000, 106.435, -108.7871
5.080000, 106.503, -109.8343
5.150000, 106.561, -110.7252
5.220000, 106.617, -111.5934
5.300000, 106.680, -112.5600
5.380000, 106.741, -113.5019
5.450000, 106.793, -114.3075
5.520000, 106.844, -115.0967
5.600000, 106.901, -115.9787
5.700000, 106.971, -117.0535
5.800000, 107.039, -118.1011
5.900000, 107.105, -119.1248
6.000000, 107.170, -120.1258
6.080000, 107.220, -120.9108
6.150000, 107.262, -121.5869
6.220000, 107.304, -122.2533
6.300000, 107.350, -123.0042
6.400000, 107.406, -123.9271
6.500000, 107.460, -124.8317
6.600000, 107.511, -125.7171
6.700000, 107.561, -126.5848
6.800000, 107.608, -127.4354
6.900000, 107.653, -128.2672
7.000000, 107.696, -129.0795
7.100000, 107.737, -129.8734
7.200000, 107.776, -130.6494
7.300000, 107.814, -131.4067
7.400000, 107.851, -132.1454
7.500000, 107.886, -132.8663
7.620000, 107.927, -133.7096
7.750000, 107.970, -134.5975
7.880000, 108.012, -135.4597
8.000000, 108.049, -136.2354
8.120000, 108.086, -136.9938
8.250000, 108.124, -137.7966
8.380000, 108.162, -138.5816
8.500000, 108.195, -139.2920
8.620000, 108.227, -139.9891
8.750000, 108.261, -140.7291
8.850000, 108.286, -141.2878
9.000000, 108.321, -142.1091
9.120000, 108.349, -142.7510
9.250000, 108.377, -143.4307
9.380000, 108.404, -144.0947
9.500000, 108.428, -144.6942
9.620000, 108.452, -145.2809
9.750000, 108.476, -145.9033
9.880000, 108.501, -146.5142
10.000000, 108.523, -147.0691
10.150000, 108.550, -147.7520
10.300000, 108.577, -148.4267
10.440000, 108.600, -149.0505
10.600000, 108.625, -149.7562
10.750000, 108.646, -150.4115
10.900000, 108.665, -151.0584
11.060000, 108.681, -151.7339
11.200000, 108.693, -152.3110
11.380000, 108.704, -153.0247
11.500000, 108.710, -153.4798
11.720000, 108.717, -154.2677
11.800000, 108.720, -154.5378
12.060000, 108.731, -155.3614
12.200000, 108.739, -155.7767
12.410000, 108.757, -156.3773
12.500000, 108.767, -156.6331
12.650000, 108.785, -157.0621
12.800000, 108.806, -157.5035
13.150000, 108.858, -158.6173
13.200000, 108.865, -158.7870
13.400000, 108.888, -159.4906
13.600000, 108.902, -160.2174
13.800000, 108.905, -160.9473
14.000000, 108.896, -161.6470
14.300000, 108.865, -162.5838
14.500000, 108.838, -163.1004
14.750000, 108.807, -163.6172
15.000000, 108.789, -164.0123
15.250000, 108.790, -164.3428
15.500000, 108.813, -164.6824
15.750000, 108.852, -165.0943
16.000000, 108.898, -165.6209
16.250000, 108.940, -166.2625
16.500000, 108.969, -166.9887
16.750000, 108.981, -167.7462
17.000000, 108.976, -168.4755
17.250000, 108.958, -169.1319
17.500000, 108.936, -169.6909
17.750000, 108.917, -170.1582
18.000000, 108.906, -170.5622
18.250000, 108.907, -170.9421
18.500000, 108.916, -171.3357
18.750000, 108.929, -171.7648
19.000000, 108.942, -172.2339
19.250000, 108.951, -172.7296
19.500000, 108.954, -173.2302
19.750000, 108.952, -173.7151
20.000000, 108.947, -174.1706
20.299999, 108.941, -174.6765
20.600000, 108.937, -175.1505
20.900000, 108.937, -175.6125
21.200001, 108.937, -176.0760
21.400000, 108.937, -176.3860
21.799999, 108.934, -176.9949
22.000000, 108.931, -177.2864
22.400000, 108.926, -177.8363
22.700001, 108.926, -178.2296
23.000000, 108.929, -178.6261
23.299999, 108.934, -179.0426
23.600000, 108.938, -179.4856
24.000000, 108.936, 179.8985
24.299999, 108.926, 179.4442
24.700001, 108.906, 178.8879
25.000000, 108.890, 178.5198
25.400000, 108.873, 178.0802
25.799999, 108.865, 177.6566
26.200001, 108.862, 177.2048
26.500000, 108.860, 176.8374
26.900000, 108.852, 176.3239
27.200001, 108.841, 175.9411
27.600000, 108.822, 175.4604
28.000000, 108.802, 175.0236
28.500000, 108.783, 174.5166
29.000000, 108.771, 174.0069
29.500000, 108.760, 173.4713
30.000000, 108.745, 172.9255
30.400000, 108.731, 172.4985
30.700001, 108.720, 172.1871
31.100000, 108.705, 171.7816
31.500000, 108.690, 171.3849
32.000000, 108.670, 170.9042
32.500000, 108.650, 170.4457
33.000000, 108.633, 170.0003
33.500000, 108.617, 169.5465
34.000000, 108.598, 169.0783
34.500000, 108.574, 168.6183
35.000000, 108.546, 168.1946
35.500000, 108.520, 167.8083
36.000000, 108.498, 167.4340
36.500000, 108.479, 167.0477
37.000000, 108.459, 166.6441
37.500000, 108.437, 166.2267
38.200001, 108.402, 165.6245
38.700001, 108.371, 165.2011
39.500000, 108.314, 164.6060
40.000000, 108.283, 164.2863
40.599998, 108.254, 163.8994
41.200001, 108.226, 163.4785
41.799999, 108.193, 163.0600
42.500000, 108.155, 162.6189
43.099998, 108.127, 162.2492
43.700001, 108.099, 161.8600
44.400002, 108.061, 161.4183
45.000000, 108.030, 161.0745
45.500000, 108.007, 160.7921
46.200001, 107.976, 160.3664
46.799999, 107.945, 159.9835
47.500000, 107.904, 159.5515
48.200001, 107.862, 159.1446
48.700001, 107.832, 158.8618
49.400002, 107.791, 158.4644
50.000000, 107.755, 158.1163
50.799999, 107.704, 157.6563
51.500000, 107.656, 157.2784
52.200001, 107.611, 156.9171
53.000000, 107.559, 156.5075
53.799999, 107.509, 156.1052
54.500000, 107.468, 155.7410
55.200001, 107.426, 155.3396
56.000000, 107.369, 154.8701
57.000000, 107.293, 154.3582
58.000000, 107.230, 153.8708
59.000000, 107.170, 153.3221
60.000000, 107.104, 152.7740
60.799999, 107.052, 152.3549
61.500000, 107.007, 151.9951
62.200001, 106.962, 151.6465
63.000000, 106.909, 151.2692
64.000000, 106.843, 150.8321
65.000000, 106.778, 150.4229
66.000000, 106.712, 150.0298
67.000000, 106.647, 149.6372
68.000000, 106.578, 149.2189
69.000000, 106.500, 148.8317
70.000000, 106.427, 148.5009
71.000000, 106.360, 148.1492
72.000000, 106.294, 147.7787
73.000000, 106.228, 147.4132
74.000000, 106.162, 147.0352
75.000000, 106.090, 146.6731
76.199997, 106.001, 146.2982
77.500000, 105.906, 145.9343
78.800003, 105.813, 145.5742
80.000000, 105.727, 145.2477
81.199997, 105.645, 144.9138
82.500000, 105.557, 144.5365
83.800003, 105.469, 144.1675
85.000000, 105.386, 143.8548
86.199997, 105.302, 143.5906
87.500000, 105.212, 143.3514
88.500000, 105.143, 143.1778
90.000000, 105.037, 142.9168
91.199997, 104.950, 142.7142
92.500000, 104.857, 142.4939
93.800003, 104.765, 142.2877
95.000000, 104.685, 142.1118
96.199997, 104.608, 141.9484
97.500000, 104.526, 141.7884
98.800003, 104.446, 141.6401
100.000000, 104.370, 141.5142
101.500000, 104.274, 141.3750
103.000000, 104.176, 141.2468
104.400002, 104.086, 141.1443
106.000000, 103.985, 141.0497
107.500000, 103.894, 140.9808
109.000000, 103.807, 140.9183
110.599998, 103.714, 140.8777
112.000000, 103.634, 140.8728
113.800003, 103.535, 140.8718
115.000000, 103.469, 140.8692
117.199997, 103.351, 140.8681
118.000000, 103.310, 140.8611
120.599998, 103.174, 140.8684
122.000000, 103.103, 140.9043
124.099998, 103.002, 140.9991
125.000000, 102.961, 141.0404
126.500000, 102.894, 141.1025
128.000000, 102.828, 141.1665
131.500000, 102.681, 141.3561
132.000000, 102.660, 141.3840
134.000000, 102.577, 141.4981
136.000000, 102.494, 141.6228
138.000000, 102.414, 141.7499
140.000000, 102.339, 141.8931
143.000000, 102.238, 142.1070
145.000000, 102.174, 142.2466
147.500000, 102.097, 142.4326
150.000000, 102.023, 142.6451
152.500000, 101.953, 142.8783
155.000000, 101.886, 143.1051
157.500000, 101.823, 143.3635
160.000000, 101.767, 143.6299
162.500000, 101.712, 143.8807
165.000000, 101.658, 144.1131
167.500000, 101.610, 144.3208
170.000000, 101.567, 144.5140
172.500000, 101.527, 144.7328
175.000000, 101.490, 144.9645
177.500000, 101.459, 145.1804
180.000000, 101.431, 145.3783
182.500000, 101.405, 145.5661
185.000000, 101.379, 145.7495
187.500000, 101.352, 145.9370
190.000000, 101.331, 146.1310
192.500000, 101.318, 146.2874
195.000000, 101.308, 146.4114
197.500000, 101.300, 146.5342
200.000000, 101.291, 146.6739
203.000000, 101.278, 146.8560
206.000000, 101.266, 146.9963
209.000000, 101.258, 147.0886
212.000000, 101.255, 147.1711
214.000000, 101.253, 147.2260
218.000000, 101.251, 147.3311
220.000000, 101.250, 147.3754
224.000000, 101.251, 147.4333
227.000000, 101.256, 147.4326
230.000000, 101.260, 147.4142
233.000000, 101.258, 147.4158
236.000000, 101.254, 147.4038
240.000000, 101.251, 147.3379
243.000000, 101.247, 147.3117
247.000000, 101.239, 147.3730
250.000000, 101.239, 147.4847
254.000000, 101.262, 147.6685
258.000000, 101.315, 147.7433
262.000000, 101.372, 147.5402
265.000000, 101.398, 147.2739
269.000000, 101.413, 146.9684
272.000000, 101.420, 146.8223
276.000000, 101.436, 146.6784
280.000000, 101.459, 146.4769
285.000000, 101.482, 146.0868
290.000000, 101.484, 145.6738
295.000000, 101.466, 145.2841
300.000000, 101.448, 144.9734
304.000000, 101.442, 144.8491
307.000000, 101.441, 144.8072
311.000000, 101.444, 144.7843
315.000000, 101.454, 144.7893
320.000000, 101.475, 144.8941
325.000000, 101.490, 145.0919
330.000000, 101.500, 145.3463
335.000000, 101.507, 145.5958
340.000000, 101.513, 145.8040
345.000000, 101.517, 146.0375
350.000000, 101.519, 146.2993
355.000000, 101.519, 146.5150
360.000000, 101.528, 146.6924
365.000000, 101.539, 146.9267
370.000000, 101.546, 147.1669
375.000000, 101.553, 147.4264
382.000000, 101.556, 147.8544
387.000000, 101.557, 148.1597
395.000000, 101.566, 148.6035
400.000000, 101.569, 148.8081
406.000000, 101.583, 149.0302
412.000000, 101.596, 149.3689
418.000000, 101.595, 149.7428
425.000000, 101.591, 150.1297
431.000000, 101.595, 150.4286
437.000000, 101.599, 150.7650
444.000000, 101.599, 151.1852
450.000000, 101.602, 151.5715
455.000000, 101.604, 151.8715
462.000000, 101.608, 152.2958
468.000000, 101.610, 152.7110
475.000000, 101.611, 153.1969
482.000000, 101.614, 153.6888
487.000000, 101.617, 154.0458
494.000000, 101.622, 154.5158
500.000000, 101.626, 154.8992
508.000000, 101.633, 155.4444
515.000000, 101.635, 155.9586
522.000000, 101.637, 156.4665
530.000000, 101.646, 157.0495
538.000000, 101.649, 157.6322
545.000000, 101.646, 158.1353
552.000000, 101.645, 158.6767
560.000000, 101.643, 159.3447
570.000000, 101.636, 160.1920
580.000000, 101.633, 161.0275
590.000000, 101.627, 161.9071
600.000000, 101.631, 162.8573
608.000000, 101.642, 163.6160
615.000000, 101.651, 164.2411
622.000000, 101.660, 164.8713
630.000000, 101.668, 165.6017
640.000000, 101.670, 166.4777
650.000000, 101.667, 167.3893
660.000000, 101.665, 168.3605
670.000000, 101.663, 169.3606
680.000000, 101.663, 170.3828
690.000000, 101.664, 171.4210
700.000000, 101.666, 172.5010
710.000000, 101.664, 173.5856
720.000000, 101.663, 174.6637
730.000000, 101.664, 175.7605
740.000000, 101.667, 176.8843
750.000000, 101.673, 178.0833
762.000000, 101.686, 179.5680
775.000000, 101.701, -178.8751
788.000000, 101.711, -177.3487
800.000000, 101.718, -175.8575
812.000000, 101.726, -174.3429
825.000000, 101.742, -172.6792
838.000000, 101.761, -171.0072
850.000000, 101.780, -169.4327
862.000000, 101.800, -167.8377
875.000000, 101.824, -166.1058
885.000000, 101.844, -164.7666
900.000000, 101.879, -162.7422
912.000000, 101.909, -161.0934
925.000000, 101.941, -159.2697
938.000000, 101.975, -157.4599
950.000000, 102.007, -155.7677
962.000000, 102.053, -154.0290
975.000000, 102.120, -152.2731
988.000000, 102.185, -150.8198
1000.000000, 102.225, -149.7539
1015.000000, 102.247, -148.8112
1030.000000, 102.269, -148.2516
1044.000000, 102.309, -147.8246
1060.000000, 102.355, -147.2730
1075.000000, 102.391, -146.7551
1090.000000, 102.429, -146.2326
1106.000000, 102.467, -145.6655
1120.000000, 102.496, -145.1539
1138.000000, 102.531, -144.4467
1150.000000, 102.554, -143.9382
1172.000000, 102.602, -142.9395
1180.000000, 102.622, -142.5522
1206.000000, 102.695, -141.2082
1220.000000, 102.740, -140.4283
1241.000000, 102.833, -139.2133
1250.000000, 102.884, -138.6988
1265.000000, 102.982, -137.8565
1280.000000, 103.092, -137.0274
1315.000000, 103.372, -135.3109
1320.000000, 103.415, -135.0985
1340.000000, 103.597, -134.3433
1360.000000, 103.787, -133.7093
1380.000000, 103.978, -133.1981
1400.000000, 104.167, -132.8102
1430.000000, 104.440, -132.4277
1450.000000, 104.610, -132.2682
1475.000000, 104.811, -132.1685
1500.000000, 104.999, -132.1263
1525.000000, 105.171, -132.1297
1550.000000, 105.333, -132.1407
1575.000000, 105.490, -132.1621
1600.000000, 105.639, -132.2072
1625.000000, 105.783, -132.2952
1650.000000, 105.921, -132.3929
1675.000000, 106.051, -132.4868
1700.000000, 106.178, -132.5897
1725.000000, 106.299, -132.6937
1750.000000, 106.416, -132.7864
1775.000000, 106.528, -132.8997
1800.000000, 106.633, -133.0162
1825.000000, 106.736, -133.0955
1850.000000, 106.844, -133.1598
1875.000000, 106.952, -133.2164
1900.000000, 107.058, -133.2723
1925.000000, 107.165, -133.3407
1950.000000, 107.273, -133.3717
1975.000000, 107.378, -133.3816
2000.000000, 107.488, -133.3844
2030.000000, 107.634, -133.4018
2060.000000, 107.791, -133.5027
2090.000000, 107.949, -133.7133
2120.000000, 108.105, -133.9744
2140.000000, 108.207, -134.1582
2180.000000, 108.412, -134.6015
2200.000000, 108.517, -134.8553
2240.000000, 108.725, -135.4595
2270.000000, 108.875, -136.0045
2300.000000, 109.025, -136.5983
2330.000000, 109.176, -137.2607
2360.000000, 109.319, -138.0250
2400.000000, 109.493, -139.1841
2430.000000, 109.609, -140.1481
2470.000000, 109.756, -141.4441
2500.000000, 109.857, -142.4592
2540.000000, 109.967, -143.9134
2580.000000, 110.050, -145.4278
2620.000000, 110.116, -146.9970
2650.000000, 110.149, -148.1712
2690.000000, 110.170, -149.6713
2720.000000, 110.169, -150.7443
2760.000000, 110.153, -152.1638
2800.000000, 110.127, -153.5947
2850.000000, 110.080, -155.2964
2900.000000, 110.013, -156.8268
2950.000000, 109.919, -158.3008
3000.000000, 109.810, -159.7199
3040.000000, 109.718, -160.7758
3070.000000, 109.645, -161.5216
3110.000000, 109.545, -162.4944
3150.000000, 109.443, -163.4564
3200.000000, 109.306, -164.6052
3250.000000, 109.156, -165.6916
3300.000000, 108.992, -166.6997
3350.000000, 108.811, -167.6207
3400.000000, 108.620, -168.4084
3450.000000, 108.428, -169.0489
3500.000000, 108.249, -169.5705
3550.000000, 108.083, -170.0497
3600.000000, 107.918, -170.5359
3650.000000, 107.751, -171.0396
3700.000000, 107.585, -171.5388
3750.000000, 107.418, -172.0549
3820.000000, 107.164, -172.8436
3870.000000, 106.961, -173.3909
3950.000000, 106.600, -174.1408
4000.000000, 106.351, -174.4816
4060.000000, 106.042, -174.6355
4120.000000, 105.739, -174.5630
4180.000000, 105.440, -174.3643
4250.000000, 105.098, -174.0032
4310.000000, 104.812, -173.6056
4370.000000, 104.529, -173.0989
4440.000000, 104.200, -172.3636
4500.000000, 103.923, -171.5856
4550.000000, 103.697, -170.8262
4620.000000, 103.399, -169.6319
4680.000000, 103.165, -168.5152
4750.000000, 102.915, -167.1595
4820.000000, 102.690, -165.8097
4870.000000, 102.538, -164.8732
4940.000000, 102.335, -163.5923
5000.000000, 102.167, -162.4605
5080.000000, 101.957, -160.8974
5150.000000, 101.791, -159.5488
5220.000000, 101.636, -158.3048
5300.000000, 101.462, -157.0102
5380.000000, 101.278, -155.7448
5450.000000, 101.105, -154.6087
5520.000000, 100.928, -153.4090
5600.000000, 100.727, -151.9362
5700.000000, 100.486, -149.9760
5800.000000, 100.259, -147.8868
5900.000000, 100.028, -145.4889
6000.000000, 99.789, -140.9469
6080.000000, 99.679, -133.8595
6150.000000, 99.593, -125.7945
6220.000000, 99.477, -117.1190
6300.000000, 99.319, -106.9790
6400.000000, 99.091, -94.0346
6500.000000, 98.832, -80.6728
6600.000000, 98.550, -66.6790
6700.000000, 98.257, -51.7567
6800.000000, 98.003, -35.5318
6900.000000, 97.894, -17.8777
7000.000000, 98.047, 0.7873
7100.000000, 98.505, 19.4271
7200.000000, 99.215, 37.0239
7300.000000, 100.070, 53.1621
7400.000000, 101.002, 68.0880
7500.000000, 102.018, 82.1769
7620.000000, 103.417, 97.6446
7750.000000, 105.117, 110.6035
7880.000000, 106.616, 117.4994
8000.000000, 107.306, 119.3545
8120.000000, 107.083, 120.3573
8250.000000, 105.961, 124.4672
8380.000000, 104.330, 133.8406
8500.000000, 102.743, 147.1378
8620.000000, 101.300, 163.7139
8750.000000, 99.982, -176.2351
8850.000000, 99.133, -160.1205
9000.000000, 98.061, -135.5309
9120.000000, 97.316, -115.6311
9250.000000, 96.574, -93.9151
9380.000000, 95.874, -71.9020
9500.000000, 95.259, -51.1870
9620.000000, 94.674, -30.0591
9750.000000, 94.090, -6.6863
9880.000000, 93.572, 17.2170
10000.000000, 93.153, 39.7218
10150.000000, 92.733, 68.2194
10300.000000, 92.424, 96.8574
10440.000000, 92.214, 123.5372
10600.000000, 92.041, 153.9852
10750.000000, 91.947, -177.4139
10900.000000, 91.916, -148.8022
11060.000000, 91.948, -118.3739
11200.000000, 92.022, -91.7545
11380.000000, 92.191, -57.4998
11500.000000, 92.361, -34.7297
11720.000000, 92.799, 6.7186
11800.000000, 93.004, 21.6770
12060.000000, 93.895, 69.5483
12200.000000, 94.545, 94.2218
12410.000000, 95.705, 127.6897
12500.000000, 96.208, 139.7715
12650.000000, 96.837, 155.6997
12800.000000, 96.856, 166.6732
13150.000000, 92.912, -169.0835
13200.000000, 91.877, -164.8196
13400.000000, 86.330, -152.1033
13600.000000, 78.217, -147.5588
13800.000000, 68.284, -145.9944
14000.000000, 57.389, -146.6584
14300.000000, 42.604, 156.6555
14500.000000, 39.248, -154.8540
14750.000000, 39.008, -109.4824
15000.000000, 39.368, -47.2169
15250.000000, 39.332, -14.9402
15500.000000, 39.222, 16.3347
15750.000000, 39.264, 52.8704
16000.000000, 39.520, -148.1069
16250.000000, 39.619, -177.6044
16500.000000, 39.886, 143.9231
16750.000000, 40.021, 6.4585
17000.000000, 39.866, 61.3557
17250.000000, 40.964, 145.3823
17500.000000, 43.593, -125.7769
17750.000000, 44.788, -120.0713
18000.000000, 42.926, -112.8599
18250.000000, 43.526, -67.4417
18500.000000, 45.764, -40.9615
18750.000000, 44.069, -63.7039
19000.000000, 40.128, -160.1124
19250.000000, 37.327, -151.4463
19500.000000, 35.340, -152.8627
19750.000000, 33.017, 146.4529
20000.000000, 30.951, 87.9060
