* Measurement data measured by REW V5.31.3
* Source: USB-C to 3.5mm Headphone Jack Adapter, USB-C to 3.5mm Headphone Jack Adapter, 0, volume: 0.470
* Format: 256k Log Swept Sine, 1 sweep at -12.0 dBFS with no timing reference
* Dated: Feb 2, 2025 9:20:13 AM
* REW Settings:
*  C-weighting compensation: Off
*  Target level: 75.0 dB
* Note: ; 
* Measurement: Monitor R
* Smoothing: 1/24 octave
* Frequency Step: 1/48 octave
* Start Frequency: 1.000 Hz
*
* Freq(Hz), SPL(dB), Phase(degrees)
1.000000, 85.523, -18.4627
1.015000, 85.743, -19.3085
1.030000, 85.959, -20.1473
1.044000, 86.160, -20.9256
1.060000, 86.387, -21.8118
1.075000, 86.599, -22.6415
1.090000, 86.809, -23.4723
1.106000, 87.031, -24.3628
1.120000, 87.222, -25.1476
1.138000, 87.462, -26.1633
1.150000, 87.618, -26.8428
1.172000, 87.897, -28.0891
1.180000, 87.996, -28.5415
1.206000, 88.311, -30.0045
1.220000, 88.475, -30.7857
1.241000, 88.716, -31.9458
1.250000, 88.817, -32.4381
1.265000, 88.983, -33.2513
1.280000, 89.145, -34.0547
1.315000, 89.514, -35.8877
1.320000, 89.566, -36.1446
1.340000, 89.769, -37.1588
1.360000, 89.968, -38.1517
1.380000, 90.164, -39.1230
1.400000, 90.356, -40.0724
1.430000, 90.640, -41.4559
1.450000, 90.827, -42.3522
1.475000, 91.056, -43.4499
1.500000, 91.279, -44.5379
1.525000, 91.494, -45.6214
1.550000, 91.703, -46.6986
1.575000, 91.905, -47.7672
1.600000, 92.100, -48.8252
1.625000, 92.289, -49.8710
1.650000, 92.473, -50.9032
1.675000, 92.652, -51.9208
1.700000, 92.826, -52.9229
1.725000, 92.996, -53.9089
1.750000, 93.162, -54.8786
1.775000, 93.324, -55.8317
1.800000, 93.483, -56.7684
1.825000, 93.640, -57.6908
1.850000, 93.793, -58.6070
1.875000, 93.941, -59.5268
1.900000, 94.084, -60.4509
1.925000, 94.223, -61.3766
1.950000, 94.357, -62.3005
1.975000, 94.487, -63.2195
2.000000, 94.613, -64.1310
2.030000, 94.759, -65.2109
2.060000, 94.901, -66.2720
2.090000, 95.038, -67.3103
2.120000, 95.172, -68.3225
2.140000, 95.259, -68.9814
2.180000, 95.429, -70.2587
2.200000, 95.512, -70.8792
2.240000, 95.672, -72.1043
2.270000, 95.786, -73.0181
2.300000, 95.895, -73.9267
2.330000, 96.000, -74.8276
2.360000, 96.102, -75.7179
2.400000, 96.231, -76.8835
2.430000, 96.324, -77.7382
2.470000, 96.445, -78.8466
2.500000, 96.532, -79.6513
2.540000, 96.646, -80.6848
2.580000, 96.756, -81.6759
2.620000, 96.861, -82.6403
2.650000, 96.936, -83.3511
2.690000, 97.031, -84.2821
2.720000, 97.100, -84.9670
2.760000, 97.188, -85.8606
2.800000, 97.273, -86.7296
2.850000, 97.375, -87.7773
2.900000, 97.475, -88.7777
2.950000, 97.573, -89.7294
3.000000, 97.667, -90.6411
3.040000, 97.738, -91.3460
3.070000, 97.790, -91.8614
3.110000, 97.858, -92.5314
3.150000, 97.924, -93.1824
3.200000, 98.005, -93.9697
3.250000, 98.086, -94.7278
3.300000, 98.167, -95.4560
3.350000, 98.247, -96.1524
3.400000, 98.325, -96.8182
3.450000, 98.402, -97.4580
3.500000, 98.479, -98.0767
3.550000, 98.555, -98.6788
3.600000, 98.630, -99.2686
3.650000, 98.706, -99.8490
3.700000, 98.782, -100.4188
3.750000, 98.858, -100.9745
3.820000, 98.964, -101.7305
3.870000, 99.039, -102.2585
3.950000, 99.158, -103.0904
4.000000, 99.231, -103.6062
4.060000, 99.318, -104.2230
4.120000, 99.405, -104.8355
4.180000, 99.490, -105.4423
4.250000, 99.588, -106.1430
4.310000, 99.669, -106.7375
4.370000, 99.749, -107.3272
4.440000, 99.838, -108.0118
4.500000, 99.913, -108.5975
4.550000, 99.973, -109.0836
4.620000, 100.055, -109.7568
4.680000, 100.123, -110.3236
4.750000, 100.199, -110.9698
4.820000, 100.272, -111.6017
4.870000, 100.322, -112.0468
4.940000, 100.389, -112.6603
5.000000, 100.445, -113.1744
5.080000, 100.517, -113.8385
5.150000, 100.579, -114.3969
5.220000, 100.638, -114.9355
5.300000, 100.704, -115.5302
5.380000, 100.768, -116.1047
5.450000, 100.824, -116.5914
5.520000, 100.880, -117.0627
5.600000, 100.945, -117.5807
5.700000, 101.025, -118.2035
5.800000, 101.106, -118.8110
5.900000, 101.188, -119.4113
6.000000, 101.272, -120.0008
6.080000, 101.339, -120.4678
6.150000, 101.398, -120.8780
6.220000, 101.457, -121.2932
6.300000, 101.524, -121.7745
6.400000, 101.607, -122.3832
6.500000, 101.688, -122.9982
6.600000, 101.766, -123.6205
6.700000, 101.840, -124.2530
6.800000, 101.911, -124.8921
6.900000, 101.977, -125.5281
7.000000, 102.039, -126.1561
7.100000, 102.096, -126.7790
7.200000, 102.148, -127.3922
7.300000, 102.197, -127.9857
7.400000, 102.242, -128.5556
7.500000, 102.283, -129.1046
7.620000, 102.330, -129.7342
7.750000, 102.378, -130.3748
7.880000, 102.425, -130.9735
8.000000, 102.467, -131.4963
8.120000, 102.509, -131.9951
8.250000, 102.556, -132.5092
8.380000, 102.602, -133.0021
8.500000, 102.643, -133.4446
8.620000, 102.685, -133.8742
8.750000, 102.728, -134.3200
8.850000, 102.759, -134.6478
9.000000, 102.802, -135.1132
9.120000, 102.835, -135.4506
9.250000, 102.870, -135.7713
9.380000, 102.904, -136.0454
9.500000, 102.937, -136.2530
9.620000, 102.975, -136.4120
9.750000, 103.022, -136.5374
9.880000, 103.078, -136.6334
10.000000, 103.141, -136.7028
10.150000, 103.234, -136.7867
10.300000, 103.344, -136.9218
10.440000, 103.462, -137.1117
10.600000, 103.607, -137.4452
10.750000, 103.750, -137.9052
10.900000, 103.892, -138.5049
11.060000, 104.033, -139.3041
11.200000, 104.145, -140.1296
11.380000, 104.262, -141.3080
11.500000, 104.320, -142.1509
11.720000, 104.384, -143.7271
11.800000, 104.393, -144.2855
12.060000, 104.376, -145.9741
12.200000, 104.342, -146.7403
12.410000, 104.271, -147.6637
12.500000, 104.238, -147.9648
12.650000, 104.184, -148.3390
12.800000, 104.136, -148.5766
13.150000, 104.084, -148.7403
13.200000, 104.085, -148.7429
13.400000, 104.107, -148.7524
13.600000, 104.156, -148.8325
13.800000, 104.221, -149.0421
14.000000, 104.289, -149.3988
14.300000, 104.376, -150.1765
14.500000, 104.413, -150.7934
14.750000, 104.431, -151.5772
15.000000, 104.421, -152.2879
15.250000, 104.394, -152.8512
15.500000, 104.362, -153.2400
15.750000, 104.338, -153.4627
16.000000, 104.330, -153.5598
16.250000, 104.345, -153.5911
16.500000, 104.383, -153.6171
16.750000, 104.441, -153.6949
17.000000, 104.514, -153.8674
17.250000, 104.595, -154.1597
17.500000, 104.677, -154.5798
17.750000, 104.752, -155.1144
18.000000, 104.813, -155.7333
18.250000, 104.857, -156.3946
18.500000, 104.885, -157.0504
18.750000, 104.898, -157.6606
19.000000, 104.903, -158.1987
19.250000, 104.905, -158.6584
19.500000, 104.910, -159.0545
19.750000, 104.921, -159.4126
20.000000, 104.936, -159.7616
20.299999, 104.958, -160.1942
20.600000, 104.977, -160.6456
20.900000, 104.990, -161.0941
21.200001, 104.997, -161.5075
21.400000, 105.000, -161.7520
21.799999, 105.010, -162.1665
22.000000, 105.019, -162.3488
22.400000, 105.048, -162.7104
22.700001, 105.076, -163.0103
23.000000, 105.105, -163.3468
23.299999, 105.132, -163.7145
23.600000, 105.155, -164.1008
24.000000, 105.181, -164.6260
24.299999, 105.197, -165.0213
24.700001, 105.214, -165.5473
25.000000, 105.223, -165.9365
25.400000, 105.230, -166.4339
25.799999, 105.233, -166.8908
26.200001, 105.237, -167.3025
26.500000, 105.243, -167.5893
26.900000, 105.253, -167.9585
27.200001, 105.264, -168.2338
27.600000, 105.278, -168.6027
28.000000, 105.294, -168.9718
28.500000, 105.315, -169.4340
29.000000, 105.337, -169.9080
29.500000, 105.357, -170.4016
30.000000, 105.370, -170.8998
30.400000, 105.375, -171.2789
30.700001, 105.377, -171.5417
31.100000, 105.381, -171.8627
31.500000, 105.388, -172.1641
32.000000, 105.402, -172.5530
32.500000, 105.415, -172.9867
33.000000, 105.420, -173.4466
33.500000, 105.416, -173.8710
34.000000, 105.410, -174.2199
34.500000, 105.413, -174.5213
35.000000, 105.428, -174.8461
35.500000, 105.444, -175.2326
36.000000, 105.454, -175.6527
36.500000, 105.458, -176.0527
37.000000, 105.462, -176.4152
37.500000, 105.470, -176.7673
38.200001, 105.484, -177.2859
38.700001, 105.490, -177.6577
39.500000, 105.501, -178.2254
40.000000, 105.511, -178.5983
40.599998, 105.516, -179.0900
41.200001, 105.509, -179.5765
41.799999, 105.492, -179.9843
42.500000, 105.480, 179.6386
43.099998, 105.480, 179.3249
43.700001, 105.485, 178.9708
44.400002, 105.487, 178.5165
45.000000, 105.483, 178.1292
45.500000, 105.479, 177.8272
46.200001, 105.474, 177.4387
46.799999, 105.476, 177.1143
47.500000, 105.480, 176.7082
48.200001, 105.482, 176.2700
48.700001, 105.478, 175.9612
49.400002, 105.471, 175.5631
50.000000, 105.467, 175.2457
50.799999, 105.465, 174.8146
51.500000, 105.463, 174.4216
52.200001, 105.461, 174.0147
53.000000, 105.455, 173.5195
53.799999, 105.439, 173.0395
54.500000, 105.425, 172.6824
55.200001, 105.418, 172.3416
56.000000, 105.413, 171.9041
57.000000, 105.395, 171.3596
58.000000, 105.378, 170.9039
59.000000, 105.370, 170.4458
60.000000, 105.359, 169.9424
60.799999, 105.346, 169.5305
61.500000, 105.332, 169.1767
62.200001, 105.317, 168.8264
63.000000, 105.298, 168.4267
64.000000, 105.271, 167.9506
65.000000, 105.248, 167.5127
66.000000, 105.230, 167.0784
67.000000, 105.214, 166.6404
68.000000, 105.198, 166.2063
69.000000, 105.182, 165.7614
70.000000, 105.160, 165.3033
71.000000, 105.130, 164.8643
72.000000, 105.097, 164.4767
73.000000, 105.069, 164.1272
74.000000, 105.049, 163.7397
75.000000, 105.025, 163.2986
76.199997, 104.992, 162.8036
77.500000, 104.961, 162.2838
78.800003, 104.929, 161.7314
80.000000, 104.892, 161.2429
81.199997, 104.855, 160.7966
82.500000, 104.816, 160.3207
83.800003, 104.778, 159.8567
85.000000, 104.742, 159.4241
86.199997, 104.705, 158.9988
87.500000, 104.664, 158.5551
88.500000, 104.633, 158.2213
90.000000, 104.586, 157.7114
91.199997, 104.548, 157.3156
92.500000, 104.508, 156.9001
93.800003, 104.467, 156.4740
95.000000, 104.425, 156.0753
96.199997, 104.378, 155.7081
97.500000, 104.328, 155.3464
98.800003, 104.281, 154.9828
100.000000, 104.240, 154.6401
101.500000, 104.189, 154.2035
103.000000, 104.138, 153.7761
104.400002, 104.088, 153.3971
106.000000, 104.029, 153.0034
107.500000, 103.974, 152.6435
109.000000, 103.916, 152.2625
110.599998, 103.852, 151.8547
112.000000, 103.796, 151.5038
113.800003, 103.724, 151.0746
115.000000, 103.677, 150.8125
117.199997, 103.594, 150.3547
118.000000, 103.563, 150.1926
120.599998, 103.454, 149.7208
122.000000, 103.394, 149.4934
124.099998, 103.305, 149.1890
125.000000, 103.268, 149.0739
126.500000, 103.208, 148.8916
128.000000, 103.147, 148.7195
131.500000, 103.004, 148.3593
132.000000, 102.984, 148.3095
134.000000, 102.905, 148.1208
136.000000, 102.832, 147.9777
138.000000, 102.760, 147.8866
140.000000, 102.687, 147.8403
143.000000, 102.574, 147.7646
145.000000, 102.499, 147.7086
147.500000, 102.409, 147.6932
150.000000, 102.326, 147.7245
152.500000, 102.245, 147.7859
155.000000, 102.164, 147.8633
157.500000, 102.083, 147.9259
160.000000, 102.001, 148.0351
162.500000, 101.926, 148.1699
165.000000, 101.856, 148.3135
167.500000, 101.786, 148.4731
170.000000, 101.724, 148.6606
172.500000, 101.670, 148.8259
175.000000, 101.615, 149.0123
177.500000, 101.554, 149.2693
180.000000, 101.495, 149.5468
182.500000, 101.440, 149.8080
185.000000, 101.387, 150.0673
187.500000, 101.333, 150.4438
190.000000, 101.301, 150.9215
192.500000, 101.293, 151.3238
195.000000, 101.301, 151.6858
197.500000, 101.323, 151.9452
200.000000, 101.332, 152.0460
203.000000, 101.316, 152.1683
206.000000, 101.296, 152.3412
209.000000, 101.279, 152.5355
212.000000, 101.264, 152.7229
214.000000, 101.254, 152.8381
218.000000, 101.244, 153.0822
220.000000, 101.243, 153.2257
224.000000, 101.243, 153.5491
227.000000, 101.241, 153.7677
230.000000, 101.239, 153.9342
233.000000, 101.242, 154.0618
236.000000, 101.248, 154.1964
240.000000, 101.255, 154.3847
243.000000, 101.259, 154.5116
247.000000, 101.266, 154.6880
250.000000, 101.270, 154.8057
254.000000, 101.269, 154.9352
258.000000, 101.265, 155.1145
262.000000, 101.268, 155.4315
265.000000, 101.284, 155.7760
269.000000, 101.336, 156.2404
272.000000, 101.399, 156.4225
276.000000, 101.483, 156.3602
280.000000, 101.537, 156.1076
285.000000, 101.568, 155.7840
290.000000, 101.582, 155.5410
295.000000, 101.597, 155.4160
300.000000, 101.603, 155.3411
304.000000, 101.605, 155.2477
307.000000, 101.607, 155.1780
311.000000, 101.611, 155.1016
315.000000, 101.614, 155.0522
320.000000, 101.615, 154.9923
325.000000, 101.622, 154.9358
330.000000, 101.623, 154.8922
335.000000, 101.620, 154.8112
340.000000, 101.618, 154.7651
345.000000, 101.616, 154.7478
350.000000, 101.618, 154.7410
355.000000, 101.626, 154.7390
360.000000, 101.638, 154.7698
365.000000, 101.644, 154.8215
370.000000, 101.642, 154.8593
375.000000, 101.639, 154.8624
382.000000, 101.646, 154.8474
387.000000, 101.659, 154.8782
395.000000, 101.679, 154.9783
400.000000, 101.692, 154.9756
406.000000, 101.707, 154.9196
412.000000, 101.718, 154.8088
418.000000, 101.725, 154.6843
425.000000, 101.730, 154.4752
431.000000, 101.739, 154.2365
437.000000, 101.752, 153.9867
444.000000, 101.777, 153.6945
450.000000, 101.800, 153.4393
455.000000, 101.814, 153.2285
462.000000, 101.831, 152.9282
468.000000, 101.850, 152.7032
475.000000, 101.877, 152.5185
482.000000, 101.921, 152.2755
487.000000, 101.959, 151.9668
494.000000, 102.003, 151.4915
500.000000, 102.029, 151.1199
508.000000, 102.056, 150.6231
515.000000, 102.076, 150.1425
522.000000, 102.102, 149.6877
530.000000, 102.129, 149.2183
538.000000, 102.153, 148.6830
545.000000, 102.177, 148.1941
552.000000, 102.201, 147.7095
560.000000, 102.225, 147.1761
570.000000, 102.245, 146.4742
580.000000, 102.267, 145.8050
590.000000, 102.287, 145.1037
600.000000, 102.308, 144.3455
608.000000, 102.324, 143.7654
615.000000, 102.336, 143.2902
622.000000, 102.342, 142.8013
630.000000, 102.346, 142.2109
640.000000, 102.353, 141.4917
650.000000, 102.359, 140.7820
660.000000, 102.361, 140.0686
670.000000, 102.360, 139.3760
680.000000, 102.355, 138.6974
690.000000, 102.353, 138.0316
700.000000, 102.348, 137.3731
710.000000, 102.340, 136.7234
720.000000, 102.332, 136.0911
730.000000, 102.326, 135.4784
740.000000, 102.319, 134.8799
750.000000, 102.311, 134.3058
762.000000, 102.303, 133.6287
775.000000, 102.297, 132.8834
788.000000, 102.294, 132.1664
800.000000, 102.287, 131.5710
812.000000, 102.279, 130.9749
825.000000, 102.270, 130.3195
838.000000, 102.265, 129.7104
850.000000, 102.264, 129.1697
862.000000, 102.264, 128.6258
875.000000, 102.264, 128.0656
885.000000, 102.270, 127.6555
900.000000, 102.291, 127.0377
912.000000, 102.311, 126.5254
925.000000, 102.336, 125.9810
938.000000, 102.368, 125.4478
950.000000, 102.398, 124.9879
962.000000, 102.426, 124.5171
975.000000, 102.462, 123.9815
988.000000, 102.503, 123.4325
1000.000000, 102.546, 122.8952
1015.000000, 102.605, 122.2103
1030.000000, 102.668, 121.5178
1044.000000, 102.732, 120.8533
1060.000000, 102.810, 120.0462
1075.000000, 102.882, 119.2265
1090.000000, 102.951, 118.3076
1106.000000, 103.010, 117.3154
1120.000000, 103.057, 116.5344
1138.000000, 103.143, 115.6184
1150.000000, 103.210, 114.9824
1172.000000, 103.329, 113.6365
1180.000000, 103.372, 113.1087
1206.000000, 103.505, 111.3418
1220.000000, 103.570, 110.3456
1241.000000, 103.661, 108.8742
1250.000000, 103.701, 108.2474
1265.000000, 103.769, 107.1858
1280.000000, 103.835, 106.1115
1315.000000, 103.977, 103.5687
1320.000000, 103.998, 103.2007
1340.000000, 104.077, 101.7311
1360.000000, 104.154, 100.2533
1380.000000, 104.228, 98.7767
1400.000000, 104.301, 97.2869
1430.000000, 104.408, 95.0350
1450.000000, 104.478, 93.5472
1475.000000, 104.565, 91.6676
1500.000000, 104.652, 89.7649
1525.000000, 104.736, 87.8452
1550.000000, 104.814, 85.9268
1575.000000, 104.889, 84.0381
1600.000000, 104.967, 82.1490
1625.000000, 105.050, 80.2399
1650.000000, 105.136, 78.3200
1675.000000, 105.222, 76.3781
1700.000000, 105.305, 74.4104
1725.000000, 105.387, 72.4360
1750.000000, 105.468, 70.4584
1775.000000, 105.550, 68.4467
1800.000000, 105.629, 66.4190
1825.000000, 105.704, 64.3929
1850.000000, 105.779, 62.3681
1875.000000, 105.856, 60.3337
1900.000000, 105.932, 58.2723
1925.000000, 106.003, 56.1923
1950.000000, 106.078, 54.1368
1975.000000, 106.153, 52.0871
2000.000000, 106.225, 50.0058
2030.000000, 106.307, 47.4487
2060.000000, 106.390, 44.9208
2090.000000, 106.469, 42.4202
2120.000000, 106.551, 39.9319
2140.000000, 106.611, 38.2680
2180.000000, 106.747, 34.8562
2200.000000, 106.813, 33.0909
2240.000000, 106.931, 29.4718
2270.000000, 107.008, 26.7423
2300.000000, 107.080, 24.0210
2330.000000, 107.147, 21.2932
2360.000000, 107.213, 18.5631
2400.000000, 107.295, 14.9025
2430.000000, 107.341, 12.2819
2470.000000, 107.410, 9.3687
2500.000000, 107.483, 7.7277
2540.000000, 107.573, 6.0522
2580.000000, 107.642, 4.4571
2620.000000, 107.714, 2.8431
2650.000000, 107.769, 1.6510
2690.000000, 107.828, 0.0590
2720.000000, 107.867, -1.1515
2760.000000, 107.913, -2.7551
2800.000000, 107.953, -4.3668
2850.000000, 107.993, -6.3789
2900.000000, 108.030, -8.3770
2950.000000, 108.047, -10.3781
3000.000000, 108.045, -12.3307
3040.000000, 108.035, -13.8094
3070.000000, 108.026, -14.9000
3110.000000, 108.008, -16.3678
3150.000000, 107.975, -17.8381
3200.000000, 107.914, -19.6034
3250.000000, 107.842, -21.3243
3300.000000, 107.753, -22.9282
3350.000000, 107.645, -24.3812
3400.000000, 107.520, -25.6306
3450.000000, 107.393, -26.6882
3500.000000, 107.281, -27.5609
3550.000000, 107.185, -28.3436
3600.000000, 107.106, -29.1663
3650.000000, 107.033, -30.1166
3700.000000, 106.943, -31.1908
3750.000000, 106.820, -32.2616
3820.000000, 106.595, -33.5400
3870.000000, 106.412, -34.2206
3950.000000, 106.100, -34.9039
4000.000000, 105.904, -35.1237
4060.000000, 105.667, -35.1625
4120.000000, 105.431, -34.9586
4180.000000, 105.200, -34.5294
4250.000000, 104.943, -33.7733
4310.000000, 104.738, -32.9149
4370.000000, 104.546, -31.8456
4440.000000, 104.341, -30.3073
4500.000000, 104.200, -28.7748
4550.000000, 104.111, -27.3923
4620.000000, 104.026, -25.4160
4680.000000, 103.984, -23.7478
4750.000000, 103.961, -21.8306
4820.000000, 103.965, -19.9177
4870.000000, 103.985, -18.5614
4940.000000, 104.041, -16.7316
5000.000000, 104.105, -15.2642
5080.000000, 104.203, -13.4786
5150.000000, 104.292, -12.0397
5220.000000, 104.383, -10.7190
5300.000000, 104.488, -9.3875
5380.000000, 104.583, -8.1871
5450.000000, 104.648, -7.2142
5520.000000, 104.697, -6.2753
5600.000000, 104.733, -5.2205
5700.000000, 104.742, -3.8615
5800.000000, 104.716, -2.3419
5900.000000, 104.668, -0.6191
6000.000000, 104.607, 1.2954
6080.000000, 104.552, 2.9838
6150.000000, 104.502, 4.5699
6220.000000, 104.450, 6.2550
6300.000000, 104.389, 8.3064
6400.000000, 104.312, 11.0593
6500.000000, 104.237, 14.0721
6600.000000, 104.171, 17.3415
6700.000000, 104.122, 20.9308
6800.000000, 104.103, 24.8672
6900.000000, 104.129, 29.1296
7000.000000, 104.222, 33.6528
7100.000000, 104.399, 38.3425
7200.000000, 104.675, 43.1312
7300.000000, 105.069, 47.9044
7400.000000, 105.615, 52.3803
7500.000000, 106.330, 56.1190
7620.000000, 107.391, 58.6883
7750.000000, 108.614, 57.6023
7880.000000, 109.502, 51.4763
8000.000000, 109.608, 41.6914
8120.000000, 108.964, 30.5949
8250.000000, 107.810, 21.1591
8380.000000, 106.604, 15.1810
8500.000000, 105.652, 11.5499
8620.000000, 104.848, 8.5403
8750.000000, 104.037, 5.4416
8850.000000, 103.395, 3.2761
9000.000000, 102.389, 0.8602
9120.000000, 101.588, -0.0502
9250.000000, 100.789, -0.0441
9380.000000, 100.113, 0.7158
9500.000000, 99.612, 1.7521
9620.000000, 99.217, 2.8779
9750.000000, 98.886, 4.0285
9880.000000, 98.631, 5.0231
10000.000000, 98.446, 5.8209
10150.000000, 98.270, 6.6984
10300.000000, 98.140, 7.5493
10440.000000, 98.070, 8.3259
10600.000000, 98.054, 9.2618
10750.000000, 98.109, 10.1885
10900.000000, 98.254, 11.1525
11060.000000, 98.512, 12.0804
11200.000000, 98.836, 12.6790
11380.000000, 99.392, 13.1764
11500.000000, 99.847, 13.2722
11720.000000, 100.900, 12.7616
11800.000000, 101.372, 12.2736
12060.000000, 103.299, 8.7375
12200.000000, 104.591, 4.7733
12410.000000, 106.736, -5.6879
12500.000000, 107.622, -12.2802
12650.000000, 108.818, -26.1564
12800.000000, 109.409, -42.6705
13150.000000, 107.679, -77.0278
13200.000000, 106.994, -79.9419
13400.000000, 102.362, -85.5101
13600.000000, 94.510, -86.4745
13800.000000, 84.646, -88.1560
14000.000000, 73.718, -96.8882
14300.000000, 56.431, -130.6908
14500.000000, 45.642, -100.0189
14750.000000, 39.563, -80.4982
15000.000000, 39.140, 28.7618
15250.000000, 39.302, 36.3083
15500.000000, 39.194, 116.4190
15750.000000, 39.217, -145.2766
16000.000000, 39.539, -149.3162
16250.000000, 39.684, -144.1790
16500.000000, 39.692, -110.8382
16750.000000, 39.901, 146.8047
17000.000000, 40.174, 125.3206
17250.000000, 40.660, 100.9273
17500.000000, 42.192, 73.9454
17750.000000, 44.437, 102.2834
18000.000000, 44.899, 152.6707
18250.000000, 45.735, -34.3997
18500.000000, 45.932, -18.0482
18750.000000, 42.861, 6.1254
19000.000000, 39.072, 28.5176
19250.000000, 36.848, 17.4194
19500.000000, 34.947, 0.8095
19750.000000, 32.799, -62.7155
20000.000000, 31.110, -67.0000
