* Measurement data measured by REW V5.31.3
* Source: USB-C to 3.5mm Headphone Jack Adapter, USB-C to 3.5mm Headphone Jack Adapter, 0, volume: 0.470
* Format: 256k Log Swept Sine, 1 sweep at -12.0 dBFS with no timing reference
* Dated: Feb 2, 2025 9:19:32 AM
* REW Settings:
*  C-weighting compensation: Off
*  Target level: 75.0 dB
* Note: ; 
* Measurement: POP Style R
* Smoothing: 1/24 octave
* Frequency Step: 1/48 octave
* Start Frequency: 1.000 Hz
*
* Freq(Hz), SPL(dB), Phase(degrees)
1.000000, 90.100, 8.0204
1.015000, 90.320, 7.1458
1.030000, 90.538, 6.2784
1.044000, 90.740, 5.4735
1.060000, 90.968, 4.5574
1.075000, 91.181, 3.7004
1.090000, 91.392, 2.8434
1.106000, 91.615, 1.9289
1.120000, 91.807, 1.1294
1.138000, 92.050, 0.1052
1.150000, 92.209, -0.5743
1.172000, 92.496, -1.8108
1.180000, 92.598, -2.2570
1.206000, 92.926, -3.6925
1.220000, 93.099, -4.4554
1.241000, 93.354, -5.5854
1.250000, 93.462, -6.0641
1.265000, 93.640, -6.8545
1.280000, 93.816, -7.6352
1.315000, 94.216, -9.4187
1.320000, 94.273, -9.6691
1.340000, 94.496, -10.6600
1.360000, 94.716, -11.6337
1.380000, 94.933, -12.5906
1.400000, 95.148, -13.5313
1.430000, 95.465, -14.9132
1.450000, 95.673, -15.8161
1.475000, 95.931, -16.9265
1.500000, 96.183, -18.0195
1.525000, 96.429, -19.0966
1.550000, 96.670, -20.1580
1.575000, 96.905, -21.2043
1.600000, 97.135, -22.2363
1.625000, 97.361, -23.2546
1.650000, 97.581, -24.2605
1.675000, 97.798, -25.2549
1.700000, 98.010, -26.2392
1.725000, 98.219, -27.2146
1.750000, 98.424, -28.1823
1.775000, 98.627, -29.1439
1.800000, 98.826, -30.1009
1.825000, 99.023, -31.0549
1.850000, 99.216, -32.0091
1.875000, 99.405, -32.9652
1.900000, 99.590, -33.9217
1.925000, 99.772, -34.8764
1.950000, 99.949, -35.8272
1.975000, 100.123, -36.7722
2.000000, 100.293, -37.7099
2.030000, 100.494, -38.8238
2.060000, 100.689, -39.9238
2.090000, 100.881, -41.0086
2.120000, 101.069, -42.0775
2.140000, 101.192, -42.7811
2.180000, 101.434, -44.1673
2.200000, 101.552, -44.8520
2.240000, 101.785, -46.2165
2.270000, 101.953, -47.2393
2.300000, 102.118, -48.2596
2.330000, 102.278, -49.2747
2.360000, 102.435, -50.2821
2.400000, 102.638, -51.6098
2.430000, 102.786, -52.5915
2.470000, 102.979, -53.8789
2.500000, 103.120, -54.8267
2.540000, 103.305, -56.0660
2.580000, 103.484, -57.2827
2.620000, 103.658, -58.4913
2.650000, 103.784, -59.3955
2.690000, 103.947, -60.5951
2.720000, 104.066, -61.4879
2.760000, 104.220, -62.6657
2.800000, 104.369, -63.8255
2.850000, 104.550, -65.2444
2.900000, 104.725, -66.6244
2.950000, 104.895, -67.9694
3.000000, 105.057, -69.2984
3.040000, 105.182, -70.3541
3.070000, 105.273, -71.1399
3.110000, 105.390, -72.1769
3.150000, 105.504, -73.1986
3.200000, 105.643, -74.4496
3.250000, 105.777, -75.6665
3.300000, 105.907, -76.8476
3.350000, 106.032, -78.0027
3.400000, 106.153, -79.1410
3.450000, 106.268, -80.2622
3.500000, 106.379, -81.3636
3.550000, 106.487, -82.4422
3.600000, 106.592, -83.4953
3.650000, 106.695, -84.5209
3.700000, 106.795, -85.5220
3.750000, 106.891, -86.5046
3.820000, 107.021, -87.8523
3.870000, 107.110, -88.7942
3.950000, 107.249, -90.2626
4.000000, 107.333, -91.1547
4.060000, 107.432, -92.1996
4.120000, 107.529, -93.2208
4.180000, 107.622, -94.2209
4.250000, 107.728, -95.3625
4.310000, 107.816, -96.3199
4.370000, 107.902, -97.2583
4.440000, 108.001, -98.3309
4.500000, 108.083, -99.2331
4.550000, 108.150, -99.9734
4.620000, 108.242, -100.9928
4.680000, 108.318, -101.8506
4.750000, 108.405, -102.8334
4.820000, 108.490, -103.7989
4.870000, 108.549, -104.4794
4.940000, 108.629, -105.4189
5.000000, 108.696, -106.2110
5.080000, 108.782, -107.2466
5.150000, 108.855, -108.1338
5.220000, 108.925, -109.0063
5.300000, 109.002, -109.9863
5.380000, 109.077, -110.9456
5.450000, 109.140, -111.7655
5.520000, 109.201, -112.5667
5.600000, 109.268, -113.4622
5.700000, 109.348, -114.5535
5.800000, 109.426, -115.6115
5.900000, 109.501, -116.6341
6.000000, 109.574, -117.6230
6.080000, 109.631, -118.3929
6.150000, 109.680, -119.0528
6.220000, 109.729, -119.7008
6.300000, 109.784, -120.4261
6.400000, 109.853, -121.3112
6.500000, 109.921, -122.1782
6.600000, 109.988, -123.0332
6.700000, 110.055, -123.8773
6.800000, 110.121, -124.7106
6.900000, 110.186, -125.5371
7.000000, 110.248, -126.3609
7.100000, 110.310, -127.1828
7.200000, 110.368, -128.0004
7.300000, 110.424, -128.8114
7.400000, 110.476, -129.6175
7.500000, 110.525, -130.4191
7.620000, 110.579, -131.3660
7.750000, 110.630, -132.3639
7.880000, 110.675, -133.3352
8.000000, 110.711, -134.1992
8.120000, 110.743, -135.0224
8.250000, 110.774, -135.8699
8.380000, 110.802, -136.6710
8.500000, 110.827, -137.3653
8.620000, 110.853, -138.0185
8.750000, 110.881, -138.6904
8.850000, 110.906, -139.1858
9.000000, 110.945, -139.8969
9.120000, 110.980, -140.4533
9.250000, 111.021, -141.0553
9.380000, 111.065, -141.6585
9.500000, 111.107, -142.2264
9.620000, 111.148, -142.8119
9.750000, 111.193, -143.4643
9.880000, 111.234, -144.1343
10.000000, 111.269, -144.7695
10.150000, 111.307, -145.5791
10.300000, 111.336, -146.3899
10.440000, 111.356, -147.1431
10.600000, 111.370, -147.9817
10.750000, 111.375, -148.7312
10.900000, 111.374, -149.4405
11.060000, 111.369, -150.1398
11.200000, 111.361, -150.7014
11.380000, 111.352, -151.3594
11.500000, 111.347, -151.7593
11.720000, 111.343, -152.4316
11.800000, 111.344, -152.6619
12.060000, 111.356, -153.3794
12.200000, 111.368, -153.7622
12.410000, 111.390, -154.3442
12.500000, 111.401, -154.6003
12.650000, 111.419, -155.0375
12.800000, 111.438, -155.4864
13.150000, 111.480, -156.5719
13.200000, 111.485, -156.7295
13.400000, 111.505, -157.3630
13.600000, 111.523, -157.9968
13.800000, 111.540, -158.6278
14.000000, 111.555, -159.2556
14.300000, 111.576, -160.1921
14.500000, 111.588, -160.8137
14.750000, 111.601, -161.5845
15.000000, 111.610, -162.3421
15.250000, 111.616, -163.0768
15.500000, 111.619, -163.7808
15.750000, 111.622, -164.4513
16.000000, 111.627, -165.0915
16.250000, 111.633, -165.7112
16.500000, 111.642, -166.3206
16.750000, 111.652, -166.9283
17.000000, 111.660, -167.5362
17.250000, 111.666, -168.1395
17.500000, 111.669, -168.7286
17.750000, 111.668, -169.2920
18.000000, 111.666, -169.8223
18.250000, 111.664, -170.3174
18.500000, 111.663, -170.7824
18.750000, 111.665, -171.2274
19.000000, 111.670, -171.6637
19.250000, 111.676, -172.1018
19.500000, 111.684, -172.5468
19.750000, 111.690, -172.9997
20.000000, 111.694, -173.4571
20.299999, 111.696, -174.0047
20.600000, 111.694, -174.5432
20.900000, 111.690, -175.0675
21.200001, 111.685, -175.5767
21.400000, 111.681, -175.9085
21.799999, 111.672, -176.5574
22.000000, 111.667, -176.8763
22.400000, 111.658, -177.5068
22.700001, 111.651, -177.9758
23.000000, 111.644, -178.4429
23.299999, 111.636, -178.9079
23.600000, 111.628, -179.3689
24.000000, 111.617, -179.9732
24.299999, 111.608, 179.5825
24.700001, 111.598, 178.9991
25.000000, 111.592, 178.5637
25.400000, 111.583, 177.9806
25.799999, 111.573, 177.3969
26.200001, 111.560, 176.8243
26.500000, 111.549, 176.4105
26.900000, 111.534, 175.8845
27.200001, 111.523, 175.5066
27.600000, 111.511, 175.0146
28.000000, 111.500, 174.5260
28.500000, 111.484, 173.9154
29.000000, 111.465, 173.3156
29.500000, 111.443, 172.7394
30.000000, 111.420, 172.1878
30.400000, 111.402, 171.7589
30.700001, 111.389, 171.4406
31.100000, 111.372, 171.0166
31.500000, 111.355, 170.5883
32.000000, 111.333, 170.0435
32.500000, 111.308, 169.4937
33.000000, 111.280, 168.9536
33.500000, 111.250, 168.4347
34.000000, 111.222, 167.9341
34.500000, 111.195, 167.4402
35.000000, 111.168, 166.9484
35.500000, 111.141, 166.4645
36.000000, 111.114, 165.9918
36.500000, 111.089, 165.5197
37.000000, 111.063, 165.0356
37.500000, 111.033, 164.5461
38.200001, 110.983, 163.9011
38.700001, 110.946, 163.4893
39.500000, 110.895, 162.8656
40.000000, 110.866, 162.4647
40.599998, 110.828, 161.9797
41.200001, 110.788, 161.5127
41.799999, 110.752, 161.0557
42.500000, 110.712, 160.5005
43.099998, 110.676, 160.0003
43.700001, 110.634, 159.4960
44.400002, 110.580, 158.9357
45.000000, 110.529, 158.5103
45.500000, 110.490, 158.2020
46.200001, 110.444, 157.8047
46.799999, 110.413, 157.4409
47.500000, 110.375, 156.9642
48.200001, 110.330, 156.4792
48.700001, 110.294, 156.1555
49.400002, 110.245, 155.7271
50.000000, 110.205, 155.3586
50.799999, 110.147, 154.8604
51.500000, 110.094, 154.4434
52.200001, 110.042, 154.0429
53.000000, 109.984, 153.5754
53.799999, 109.924, 153.1011
54.500000, 109.871, 152.7017
55.200001, 109.819, 152.3127
56.000000, 109.762, 151.8604
57.000000, 109.688, 151.2881
58.000000, 109.609, 150.7415
59.000000, 109.528, 150.2331
60.000000, 109.447, 149.7531
60.799999, 109.384, 149.3625
61.500000, 109.326, 149.0137
62.200001, 109.267, 148.6711
63.000000, 109.200, 148.2863
64.000000, 109.115, 147.8121
65.000000, 109.032, 147.3723
66.000000, 108.954, 146.9487
67.000000, 108.877, 146.5249
68.000000, 108.798, 146.1273
69.000000, 108.720, 145.7485
70.000000, 108.639, 145.3635
71.000000, 108.552, 144.9872
72.000000, 108.463, 144.6559
73.000000, 108.378, 144.3446
74.000000, 108.296, 144.0204
75.000000, 108.215, 143.6978
76.199997, 108.120, 143.3180
77.500000, 108.017, 142.9185
78.800003, 107.911, 142.5350
80.000000, 107.810, 142.2084
81.199997, 107.707, 141.9008
82.500000, 107.596, 141.5900
83.800003, 107.489, 141.2868
85.000000, 107.391, 141.0071
86.199997, 107.290, 140.7556
87.500000, 107.183, 140.5393
88.500000, 107.103, 140.3866
90.000000, 106.985, 140.1611
91.199997, 106.892, 139.9895
92.500000, 106.792, 139.8055
93.800003, 106.692, 139.6280
95.000000, 106.599, 139.4786
96.199997, 106.505, 139.3556
97.500000, 106.403, 139.2395
98.800003, 106.302, 139.1507
100.000000, 106.211, 139.0785
101.500000, 106.102, 138.9910
103.000000, 105.996, 138.9043
104.400002, 105.897, 138.8340
106.000000, 105.785, 138.7944
107.500000, 105.680, 138.7891
109.000000, 105.576, 138.7919
110.599998, 105.465, 138.7948
112.000000, 105.368, 138.8050
113.800003, 105.248, 138.8317
115.000000, 105.171, 138.8583
117.199997, 105.035, 138.9320
118.000000, 104.987, 138.9744
120.599998, 104.831, 139.1478
122.000000, 104.747, 139.2593
124.099998, 104.623, 139.4502
125.000000, 104.572, 139.5292
126.500000, 104.489, 139.6582
128.000000, 104.406, 139.7997
131.500000, 104.219, 140.1569
132.000000, 104.193, 140.2064
134.000000, 104.093, 140.4042
136.000000, 103.999, 140.6071
138.000000, 103.911, 140.8348
140.000000, 103.824, 141.0961
143.000000, 103.696, 141.5097
145.000000, 103.614, 141.7600
147.500000, 103.515, 142.0869
150.000000, 103.423, 142.4518
152.500000, 103.336, 142.8441
155.000000, 103.253, 143.2191
157.500000, 103.171, 143.5844
160.000000, 103.091, 143.9407
162.500000, 103.017, 144.3085
165.000000, 102.948, 144.6708
167.500000, 102.880, 145.0470
170.000000, 102.820, 145.4368
172.500000, 102.769, 145.7746
175.000000, 102.716, 146.1072
177.500000, 102.660, 146.5014
180.000000, 102.605, 146.8975
182.500000, 102.551, 147.2799
185.000000, 102.500, 147.6871
187.500000, 102.454, 148.1415
190.000000, 102.420, 148.6522
192.500000, 102.411, 149.1718
195.000000, 102.429, 149.5818
197.500000, 102.450, 149.8091
200.000000, 102.450, 149.9493
203.000000, 102.429, 150.1220
206.000000, 102.402, 150.3227
209.000000, 102.377, 150.5370
212.000000, 102.353, 150.7446
214.000000, 102.338, 150.8748
218.000000, 102.317, 151.1406
220.000000, 102.309, 151.2908
224.000000, 102.290, 151.6111
227.000000, 102.273, 151.8297
230.000000, 102.255, 152.0068
233.000000, 102.241, 152.1566
236.000000, 102.229, 152.3013
240.000000, 102.214, 152.4872
243.000000, 102.205, 152.6211
247.000000, 102.191, 152.8226
250.000000, 102.179, 152.9731
254.000000, 102.156, 153.1697
258.000000, 102.129, 153.4307
262.000000, 102.110, 153.8320
265.000000, 102.114, 154.2278
269.000000, 102.151, 154.7219
272.000000, 102.200, 154.9068
276.000000, 102.259, 154.8787
280.000000, 102.284, 154.6950
285.000000, 102.287, 154.4474
290.000000, 102.283, 154.2634
295.000000, 102.280, 154.1942
300.000000, 102.271, 154.1897
304.000000, 102.261, 154.1574
307.000000, 102.254, 154.1078
311.000000, 102.249, 154.0477
315.000000, 102.240, 154.0222
320.000000, 102.224, 154.0022
325.000000, 102.214, 154.0123
330.000000, 102.202, 154.0594
335.000000, 102.192, 154.0992
340.000000, 102.187, 154.1866
345.000000, 102.184, 154.3336
350.000000, 102.185, 154.5203
355.000000, 102.190, 154.7335
360.000000, 102.194, 154.9612
365.000000, 102.192, 155.1785
370.000000, 102.181, 155.3706
375.000000, 102.173, 155.5376
382.000000, 102.169, 155.7326
387.000000, 102.171, 155.8867
395.000000, 102.164, 156.2022
400.000000, 102.158, 156.3852
406.000000, 102.153, 156.5958
412.000000, 102.150, 156.8026
418.000000, 102.145, 157.0450
425.000000, 102.135, 157.3242
431.000000, 102.128, 157.5452
437.000000, 102.120, 157.7710
444.000000, 102.117, 158.0289
450.000000, 102.115, 158.2450
455.000000, 102.110, 158.4421
462.000000, 102.098, 158.7253
468.000000, 102.091, 159.0124
475.000000, 102.091, 159.4388
482.000000, 102.107, 159.7946
487.000000, 102.122, 159.9247
494.000000, 102.133, 160.0911
500.000000, 102.132, 160.2921
508.000000, 102.124, 160.5759
515.000000, 102.115, 160.7870
522.000000, 102.112, 161.0367
530.000000, 102.109, 161.3917
538.000000, 102.103, 161.6974
545.000000, 102.102, 161.9572
552.000000, 102.101, 162.2319
560.000000, 102.098, 162.5819
570.000000, 102.088, 163.0009
580.000000, 102.084, 163.4525
590.000000, 102.079, 163.8965
600.000000, 102.079, 164.2992
608.000000, 102.080, 164.6518
615.000000, 102.080, 164.9957
622.000000, 102.075, 165.3351
630.000000, 102.068, 165.7004
640.000000, 102.065, 166.1702
650.000000, 102.064, 166.6489
660.000000, 102.061, 167.1307
670.000000, 102.056, 167.6361
680.000000, 102.050, 168.1529
690.000000, 102.048, 168.6725
700.000000, 102.048, 169.1995
710.000000, 102.043, 169.7378
720.000000, 102.042, 170.2891
730.000000, 102.042, 170.8536
740.000000, 102.043, 171.4294
750.000000, 102.044, 172.0236
762.000000, 102.048, 172.7418
775.000000, 102.057, 173.4909
788.000000, 102.071, 174.2594
800.000000, 102.080, 175.0303
812.000000, 102.088, 175.7936
825.000000, 102.097, 176.5950
838.000000, 102.110, 177.4301
850.000000, 102.123, 178.2197
862.000000, 102.137, 178.9962
875.000000, 102.151, 179.8635
885.000000, 102.167, -179.4529
900.000000, 102.201, -178.4503
912.000000, 102.230, -177.6762
925.000000, 102.264, -176.8289
938.000000, 102.301, -175.9740
950.000000, 102.333, -175.1613
962.000000, 102.362, -174.3630
975.000000, 102.395, -173.5189
988.000000, 102.431, -172.6791
1000.000000, 102.466, -171.9304
1015.000000, 102.508, -171.0114
1030.000000, 102.548, -170.0693
1044.000000, 102.594, -169.1882
1060.000000, 102.650, -168.3215
1075.000000, 102.688, -167.7088
1090.000000, 102.702, -167.3353
1106.000000, 102.690, -167.0588
1120.000000, 102.681, -166.7415
1138.000000, 102.703, -166.1825
1150.000000, 102.723, -165.7800
1172.000000, 102.756, -165.0914
1180.000000, 102.770, -164.8362
1206.000000, 102.824, -163.9075
1220.000000, 102.860, -163.3654
1241.000000, 102.927, -162.4536
1250.000000, 102.966, -162.0448
1265.000000, 103.043, -161.3805
1280.000000, 103.133, -160.7459
1315.000000, 103.380, -159.4673
1320.000000, 103.420, -159.3159
1340.000000, 103.586, -158.7853
1360.000000, 103.756, -158.3886
1380.000000, 103.927, -158.1119
1400.000000, 104.094, -157.9530
1430.000000, 104.334, -157.8936
1450.000000, 104.486, -157.9278
1475.000000, 104.664, -158.0602
1500.000000, 104.832, -158.2791
1525.000000, 104.987, -158.5451
1550.000000, 105.127, -158.8211
1575.000000, 105.258, -159.0787
1600.000000, 105.384, -159.3412
1625.000000, 105.510, -159.6245
1650.000000, 105.633, -159.9147
1675.000000, 105.753, -160.2148
1700.000000, 105.867, -160.5276
1725.000000, 105.977, -160.8378
1750.000000, 106.084, -161.1342
1775.000000, 106.191, -161.4472
1800.000000, 106.294, -161.7634
1825.000000, 106.394, -162.0697
1850.000000, 106.494, -162.3696
1875.000000, 106.596, -162.6701
1900.000000, 106.699, -162.9923
1925.000000, 106.800, -163.3309
1950.000000, 106.905, -163.6428
1975.000000, 107.014, -163.9474
2000.000000, 107.120, -164.2846
2030.000000, 107.245, -164.7576
2060.000000, 107.376, -165.2164
2090.000000, 107.507, -165.6643
2120.000000, 107.644, -166.1194
2140.000000, 107.744, -166.4444
2180.000000, 107.960, -167.2310
2200.000000, 108.067, -167.7103
2240.000000, 108.268, -168.8116
2270.000000, 108.409, -169.7076
2300.000000, 108.542, -170.6449
2330.000000, 108.670, -171.6399
2360.000000, 108.793, -172.6951
2400.000000, 108.950, -174.2082
2430.000000, 109.059, -175.4127
2470.000000, 109.186, -177.1259
2500.000000, 109.267, -178.4622
2540.000000, 109.356, 179.7520
2580.000000, 109.419, 177.9151
2620.000000, 109.470, 176.0411
2650.000000, 109.496, 174.6568
2690.000000, 109.503, 172.8272
2720.000000, 109.493, 171.4651
2760.000000, 109.463, 169.7032
2800.000000, 109.419, 167.9900
2850.000000, 109.346, 165.9338
2900.000000, 109.264, 163.9876
2950.000000, 109.161, 162.1442
3000.000000, 109.045, 160.4424
3040.000000, 108.949, 159.1933
3070.000000, 108.880, 158.2855
3110.000000, 108.784, 157.0794
3150.000000, 108.680, 155.8885
3200.000000, 108.538, 154.4862
3250.000000, 108.396, 153.1255
3300.000000, 108.248, 151.8633
3350.000000, 108.090, 150.7230
3400.000000, 107.925, 149.7373
3450.000000, 107.766, 148.8901
3500.000000, 107.627, 148.1665
3550.000000, 107.512, 147.4623
3600.000000, 107.417, 146.6422
3650.000000, 107.332, 145.6173
3700.000000, 107.231, 144.3985
3750.000000, 107.097, 143.1144
3820.000000, 106.858, 141.4218
3870.000000, 106.666, 140.3599
3950.000000, 106.334, 138.9110
4000.000000, 106.119, 138.1158
4060.000000, 105.854, 137.2961
4120.000000, 105.581, 136.6324
4180.000000, 105.303, 136.1150
4250.000000, 104.977, 135.6691
4310.000000, 104.699, 135.4380
4370.000000, 104.419, 135.3914
4440.000000, 104.094, 135.6184
4500.000000, 103.837, 136.0339
4550.000000, 103.643, 136.4982
4620.000000, 103.402, 137.2246
4680.000000, 103.218, 137.8684
4750.000000, 103.025, 138.6539
4820.000000, 102.857, 139.4993
4870.000000, 102.757, 140.1255
4940.000000, 102.649, 140.9703
5000.000000, 102.579, 141.6219
5080.000000, 102.507, 142.3445
5150.000000, 102.457, 142.8512
5220.000000, 102.419, 143.2118
5300.000000, 102.385, 143.4015
5380.000000, 102.348, 143.4109
5450.000000, 102.302, 143.2932
5520.000000, 102.243, 143.0915
5600.000000, 102.157, 142.7910
5700.000000, 102.016, 142.3912
5800.000000, 101.838, 142.0858
5900.000000, 101.638, 141.9109
6000.000000, 101.422, 141.8455
6080.000000, 101.241, 141.9051
6150.000000, 101.077, 142.0340
6220.000000, 100.905, 142.2343
6300.000000, 100.695, 142.5699
6400.000000, 100.398, 143.3945
6500.000000, 100.068, 145.9346
6600.000000, 99.752, 151.2567
6700.000000, 99.418, 158.5728
6800.000000, 99.121, 167.2950
6900.000000, 98.970, 177.3207
7000.000000, 99.075, -171.8378
7100.000000, 99.478, -161.1337
7200.000000, 100.124, -151.3985
7300.000000, 100.921, -142.9635
7400.000000, 101.810, -135.8034
7500.000000, 102.771, -129.8072
7620.000000, 104.029, -124.3958
7750.000000, 105.443, -121.8557
7880.000000, 106.585, -123.7009
8000.000000, 107.029, -128.0090
8120.000000, 106.798, -131.9704
8250.000000, 106.054, -133.5111
8380.000000, 105.151, -132.0411
8500.000000, 104.352, -128.9715
8620.000000, 103.586, -125.2125
8750.000000, 102.716, -120.7213
8850.000000, 101.978, -116.7936
9000.000000, 100.768, -109.5941
9120.000000, 99.763, -102.3586
9250.000000, 98.715, -93.0441
9380.000000, 97.772, -82.4782
9500.000000, 97.020, -71.9733
9620.000000, 96.383, -61.0198
9750.000000, 95.812, -48.8713
9880.000000, 95.351, -36.6009
10000.000000, 95.007, -25.2347
10150.000000, 94.674, -11.0684
10300.000000, 94.429, 3.0171
10440.000000, 94.271, 16.0242
10600.000000, 94.164, 30.7187
10750.000000, 94.126, 44.3519
10900.000000, 94.152, 57.8507
11060.000000, 94.242, 71.9853
11200.000000, 94.372, 84.0707
11380.000000, 94.608, 99.2989
11500.000000, 94.799, 109.2294
11720.000000, 95.243, 126.9312
11800.000000, 95.446, 133.1658
12060.000000, 96.296, 151.9746
12200.000000, 96.866, 160.4758
12410.000000, 97.751, 169.4012
12500.000000, 98.050, 171.3500
12650.000000, 98.229, 172.0001
12800.000000, 97.753, 170.5014
13150.000000, 93.339, 173.2758
13200.000000, 92.317, 175.0976
13400.000000, 86.786, -177.6410
13600.000000, 78.604, -173.8786
13800.000000, 68.613, -172.0201
14000.000000, 57.680, 176.4611
14300.000000, 42.768, 84.7724
14500.000000, 39.295, 110.1943
14750.000000, 39.095, 143.0834
15000.000000, 39.353, -72.3008
15250.000000, 39.371, -38.4577
15500.000000, 39.371, -94.6295
15750.000000, 39.666, -141.9625
16000.000000, 39.921, 172.8135
16250.000000, 39.861, -120.7076
16500.000000, 39.935, -82.5845
16750.000000, 40.125, -138.5138
17000.000000, 40.374, -159.2166
17250.000000, 41.529, 108.7312
17500.000000, 43.796, 107.3098
17750.000000, 44.439, 113.5779
18000.000000, 42.930, 128.0601
18250.000000, 43.517, 146.6875
18500.000000, 45.596, -17.5814
18750.000000, 44.479, -11.3361
19000.000000, 40.759, -140.3331
19250.000000, 37.364, -142.4163
19500.000000, 35.214, -168.7108
19750.000000, 33.284, 175.0723
20000.000000, 31.857, 152.1426
