* Measurement data measured by REW V5.31.3
* Source: USB-C to 3.5mm Headphone Jack Adapter, USB-C to 3.5mm Headphone Jack Adapter, 0, volume: 0.470
* Format: 256k Log Swept Sine, 1 sweep at -12.0 dBFS with no timing reference
* Dated: Feb 2, 2025 9:27:07 AM
* REW Settings:
*  C-weighting compensation: Off
*  Target level: 75.0 dB
* Note: ; 
* Measurement: Ultra Bass L
* Smoothing: 1/24 octave
* Frequency Step: 1/48 octave
* Start Frequency: 1.000 Hz
*
* Freq(Hz), SPL(dB), Phase(degrees)
1.000000, 85.296, 6.8186
1.015000, 85.529, 6.1752
1.030000, 85.760, 5.5294
1.044000, 85.974, 4.9236
1.060000, 86.217, 4.2264
1.075000, 86.443, 3.5671
1.090000, 86.668, 2.9017
1.106000, 86.907, 2.1878
1.120000, 87.114, 1.5655
1.138000, 87.375, 0.7733
1.150000, 87.546, 0.2506
1.172000, 87.856, -0.6963
1.180000, 87.967, -1.0370
1.206000, 88.321, -2.1309
1.220000, 88.509, -2.7118
1.241000, 88.786, -3.5728
1.250000, 88.903, -3.9381
1.265000, 89.096, -4.5424
1.280000, 89.287, -5.1412
1.315000, 89.725, -6.5185
1.320000, 89.786, -6.7131
1.340000, 90.030, -7.4872
1.360000, 90.271, -8.2544
1.380000, 90.509, -9.0156
1.400000, 90.744, -9.7717
1.430000, 91.093, -10.8981
1.450000, 91.322, -11.6450
1.475000, 91.605, -12.5723
1.500000, 91.884, -13.4857
1.525000, 92.156, -14.3828
1.550000, 92.423, -15.2652
1.575000, 92.684, -16.1348
1.600000, 92.941, -16.9936
1.625000, 93.192, -17.8437
1.650000, 93.439, -18.6870
1.675000, 93.682, -19.5255
1.700000, 93.920, -20.3610
1.725000, 94.155, -21.1955
1.750000, 94.386, -22.0307
1.775000, 94.614, -22.8684
1.800000, 94.839, -23.7101
1.825000, 95.061, -24.5572
1.850000, 95.279, -25.4090
1.875000, 95.494, -26.2628
1.900000, 95.704, -27.1161
1.925000, 95.910, -27.9673
1.950000, 96.113, -28.8151
1.975000, 96.311, -29.6584
2.000000, 96.506, -30.4966
2.030000, 96.736, -31.4949
2.060000, 96.961, -32.4847
2.090000, 97.181, -33.4658
2.120000, 97.398, -34.4387
2.140000, 97.540, -35.0829
2.180000, 97.819, -36.3624
2.200000, 97.957, -36.9992
2.240000, 98.226, -38.2730
2.270000, 98.422, -39.2293
2.300000, 98.614, -40.1841
2.330000, 98.801, -41.1351
2.360000, 98.984, -42.0802
2.400000, 99.222, -43.3286
2.430000, 99.397, -44.2544
2.470000, 99.624, -45.4732
2.500000, 99.791, -46.3747
2.540000, 100.009, -47.5603
2.580000, 100.221, -48.7319
2.620000, 100.427, -49.9010
2.650000, 100.577, -50.7776
2.690000, 100.772, -51.9429
2.720000, 100.914, -52.8116
2.760000, 101.099, -53.9594
2.800000, 101.279, -55.0917
2.850000, 101.497, -56.4809
2.900000, 101.708, -57.8371
2.950000, 101.913, -59.1649
3.000000, 102.110, -60.4823
3.040000, 102.262, -61.5318
3.070000, 102.373, -62.3143
3.110000, 102.517, -63.3482
3.150000, 102.657, -64.3684
3.200000, 102.827, -65.6192
3.250000, 102.992, -66.8380
3.300000, 103.153, -68.0236
3.350000, 103.308, -69.1870
3.400000, 103.457, -70.3371
3.450000, 103.601, -71.4725
3.500000, 103.740, -72.5897
3.550000, 103.874, -73.6846
3.600000, 104.005, -74.7536
3.650000, 104.134, -75.7946
3.700000, 104.259, -76.8112
3.750000, 104.380, -77.8103
3.820000, 104.543, -79.1826
3.870000, 104.656, -80.1427
3.950000, 104.831, -81.6398
4.000000, 104.938, -82.5491
4.060000, 105.064, -83.6138
4.120000, 105.187, -84.6541
4.180000, 105.307, -85.6733
4.250000, 105.442, -86.8376
4.310000, 105.556, -87.8156
4.370000, 105.668, -88.7757
4.440000, 105.797, -89.8742
4.500000, 105.905, -90.7985
4.550000, 105.994, -91.5576
4.620000, 106.116, -92.6057
4.680000, 106.218, -93.4920
4.750000, 106.336, -94.5140
4.820000, 106.451, -95.5243
4.870000, 106.532, -96.2392
4.940000, 106.643, -97.2309
5.000000, 106.737, -98.0730
5.080000, 106.858, -99.1856
5.150000, 106.961, -100.1513
5.220000, 107.062, -101.1120
5.300000, 107.173, -102.2035
5.380000, 107.281, -103.2855
5.450000, 107.372, -104.2229
5.520000, 107.460, -105.1523
5.600000, 107.557, -106.2088
5.700000, 107.672, -107.5194
5.800000, 107.781, -108.8103
5.900000, 107.883, -110.0775
6.000000, 107.979, -111.3282
6.080000, 108.051, -112.3157
6.150000, 108.112, -113.1662
6.220000, 108.169, -114.0019
6.300000, 108.232, -114.9406
6.400000, 108.305, -116.0937
6.500000, 108.374, -117.2211
6.600000, 108.439, -118.3179
6.700000, 108.500, -119.3853
6.800000, 108.557, -120.4268
6.900000, 108.612, -121.4420
7.000000, 108.664, -122.4299
7.100000, 108.713, -123.3921
7.200000, 108.761, -124.3313
7.300000, 108.807, -125.2498
7.400000, 108.852, -126.1482
7.500000, 108.896, -127.0278
7.620000, 108.947, -128.0625
7.750000, 109.001, -129.1629
7.880000, 109.053, -130.2433
8.000000, 109.099, -131.2263
8.120000, 109.144, -132.1993
8.250000, 109.191, -133.2432
8.380000, 109.235, -134.2770
8.500000, 109.273, -135.2240
8.620000, 109.308, -136.1645
8.750000, 109.343, -137.1732
8.850000, 109.367, -137.9411
9.000000, 109.399, -139.0806
9.120000, 109.421, -139.9764
9.250000, 109.440, -140.9280
9.380000, 109.456, -141.8598
9.500000, 109.468, -142.6979
9.620000, 109.477, -143.5121
9.750000, 109.483, -144.3680
9.880000, 109.489, -145.1949
10.000000, 109.492, -145.9312
10.150000, 109.495, -146.8180
10.300000, 109.499, -147.6715
10.440000, 109.502, -148.4398
10.600000, 109.507, -149.2928
10.750000, 109.512, -150.0749
10.900000, 109.518, -150.8432
11.060000, 109.524, -151.6544
11.200000, 109.528, -152.3584
11.380000, 109.531, -153.2520
11.500000, 109.530, -153.8397
11.720000, 109.522, -154.8858
11.800000, 109.517, -155.2519
12.060000, 109.495, -156.3744
12.200000, 109.480, -156.9240
12.410000, 109.457, -157.6723
12.500000, 109.449, -157.9650
12.650000, 109.438, -158.4178
12.800000, 109.433, -158.8396
13.150000, 109.445, -159.7739
13.200000, 109.450, -159.9115
13.400000, 109.473, -160.4907
13.600000, 109.501, -161.1384
13.800000, 109.526, -161.8687
14.000000, 109.541, -162.6700
14.300000, 109.533, -163.9467
14.500000, 109.501, -164.7812
14.750000, 109.435, -165.7156
15.000000, 109.349, -166.4558
15.250000, 109.258, -166.9554
15.500000, 109.181, -167.2380
15.750000, 109.132, -167.3788
16.000000, 109.117, -167.4957
16.250000, 109.128, -167.7044
16.500000, 109.153, -168.0761
16.750000, 109.173, -168.6278
17.000000, 109.173, -169.3115
17.250000, 109.147, -170.0465
17.500000, 109.093, -170.7393
17.750000, 109.020, -171.3121
18.000000, 108.940, -171.7269
18.250000, 108.865, -171.9865
18.500000, 108.807, -172.1362
18.750000, 108.768, -172.2402
19.000000, 108.747, -172.3605
19.250000, 108.738, -172.5396
19.500000, 108.734, -172.7875
19.750000, 108.730, -173.0953
20.000000, 108.722, -173.4389
20.299999, 108.709, -173.8666
20.600000, 108.693, -174.2901
20.900000, 108.677, -174.7056
21.200001, 108.662, -175.1189
21.400000, 108.652, -175.3939
21.799999, 108.628, -175.9290
22.000000, 108.615, -176.1788
22.400000, 108.589, -176.6217
22.700001, 108.573, -176.9039
23.000000, 108.564, -177.1595
23.299999, 108.561, -177.4100
23.600000, 108.562, -177.6716
24.000000, 108.565, -178.0411
24.299999, 108.564, -178.3212
24.700001, 108.561, -178.6758
25.000000, 108.559, -178.9222
25.400000, 108.558, -179.2354
25.799999, 108.558, -179.5490
26.200001, 108.557, -179.8710
26.500000, 108.554, 179.8867
26.900000, 108.547, 179.5710
27.200001, 108.541, 179.3408
27.600000, 108.532, 179.0375
28.000000, 108.522, 178.7349
28.500000, 108.505, 178.3701
29.000000, 108.487, 178.0432
29.500000, 108.475, 177.7477
30.000000, 108.473, 177.4388
30.400000, 108.474, 177.1565
30.700001, 108.475, 176.9247
31.100000, 108.473, 176.6029
31.500000, 108.469, 176.2835
32.000000, 108.465, 175.8982
32.500000, 108.462, 175.5179
33.000000, 108.460, 175.1299
33.500000, 108.455, 174.7388
34.000000, 108.448, 174.3610
34.500000, 108.439, 174.0066
35.000000, 108.432, 173.6716
35.500000, 108.428, 173.3400
36.000000, 108.426, 172.9932
36.500000, 108.422, 172.6202
37.000000, 108.416, 172.2247
37.500000, 108.405, 171.8217
38.200001, 108.385, 171.2674
38.700001, 108.370, 170.8781
39.500000, 108.343, 170.2536
40.000000, 108.324, 169.8736
40.599998, 108.299, 169.4539
41.200001, 108.278, 169.0737
41.799999, 108.265, 168.6962
42.500000, 108.251, 168.2231
43.099998, 108.236, 167.8121
43.700001, 108.219, 167.4200
44.400002, 108.202, 166.9579
45.000000, 108.184, 166.5326
45.500000, 108.161, 166.1775
46.200001, 108.123, 165.7261
46.799999, 108.090, 165.3807
47.500000, 108.055, 164.9901
48.200001, 108.021, 164.5944
48.700001, 107.998, 164.3021
49.400002, 107.966, 163.8727
50.000000, 107.936, 163.4985
50.799999, 107.896, 163.0149
51.500000, 107.864, 162.5859
52.200001, 107.831, 162.1353
53.000000, 107.784, 161.6477
53.799999, 107.737, 161.2506
54.500000, 107.707, 160.9244
55.200001, 107.679, 160.5333
56.000000, 107.632, 160.0702
57.000000, 107.570, 159.5961
58.000000, 107.508, 159.0276
59.000000, 107.412, 158.6202
60.000000, 107.363, 158.4642
60.799999, 107.354, 158.0832
61.500000, 107.326, 157.6133
62.200001, 107.283, 157.2060
63.000000, 107.238, 156.8165
64.000000, 107.182, 156.3369
65.000000, 107.121, 155.9174
66.000000, 107.061, 155.5692
67.000000, 107.002, 155.2480
68.000000, 106.943, 154.9197
69.000000, 106.879, 154.5862
70.000000, 106.813, 154.2565
71.000000, 106.747, 153.9469
72.000000, 106.688, 153.6506
73.000000, 106.635, 153.3109
74.000000, 106.575, 152.9405
75.000000, 106.508, 152.6200
76.199997, 106.428, 152.2950
77.500000, 106.342, 151.9844
78.800003, 106.261, 151.6901
80.000000, 106.191, 151.3661
81.199997, 106.118, 151.0187
82.500000, 106.039, 150.6927
83.800003, 105.967, 150.3961
85.000000, 105.899, 150.1355
86.199997, 105.829, 149.9138
87.500000, 105.749, 149.6984
88.500000, 105.686, 149.5537
90.000000, 105.592, 149.3575
91.199997, 105.521, 149.1737
92.500000, 105.442, 148.9552
93.800003, 105.361, 148.7415
95.000000, 105.288, 148.5954
96.199997, 105.222, 148.4566
97.500000, 105.152, 148.2998
98.800003, 105.082, 148.1448
100.000000, 105.015, 148.0125
101.500000, 104.930, 147.8710
103.000000, 104.844, 147.7551
104.400002, 104.765, 147.6528
106.000000, 104.679, 147.5446
107.500000, 104.601, 147.4400
109.000000, 104.524, 147.3534
110.599998, 104.443, 147.2991
112.000000, 104.374, 147.2646
113.800003, 104.284, 147.2236
115.000000, 104.225, 147.1899
117.199997, 104.120, 147.1110
118.000000, 104.082, 147.0725
120.599998, 103.954, 147.0515
122.000000, 103.890, 147.0909
124.099998, 103.801, 147.1382
125.000000, 103.764, 147.1408
126.500000, 103.700, 147.1306
128.000000, 103.637, 147.1517
131.500000, 103.500, 147.2916
132.000000, 103.481, 147.3105
134.000000, 103.399, 147.3854
136.000000, 103.317, 147.4595
138.000000, 103.237, 147.5230
140.000000, 103.160, 147.6032
143.000000, 103.051, 147.7315
145.000000, 102.983, 147.8330
147.500000, 102.905, 147.9554
150.000000, 102.831, 148.1012
152.500000, 102.754, 148.2746
155.000000, 102.680, 148.4792
157.500000, 102.613, 148.6829
160.000000, 102.546, 148.8661
162.500000, 102.478, 149.0444
165.000000, 102.410, 149.2034
167.500000, 102.346, 149.3736
170.000000, 102.287, 149.5624
172.500000, 102.230, 149.7721
175.000000, 102.172, 149.9914
177.500000, 102.119, 150.2447
180.000000, 102.073, 150.5071
182.500000, 102.030, 150.7605
185.000000, 101.986, 151.0259
187.500000, 101.942, 151.3272
190.000000, 101.902, 151.6545
192.500000, 101.867, 151.9723
195.000000, 101.835, 152.2854
197.500000, 101.805, 152.6180
200.000000, 101.772, 152.9631
203.000000, 101.730, 153.3500
206.000000, 101.690, 153.6781
209.000000, 101.654, 154.0036
212.000000, 101.622, 154.3573
214.000000, 101.602, 154.5941
218.000000, 101.568, 155.0717
220.000000, 101.552, 155.3145
224.000000, 101.523, 155.8107
227.000000, 101.505, 156.1444
230.000000, 101.485, 156.4603
233.000000, 101.458, 156.8004
236.000000, 101.430, 157.1569
240.000000, 101.401, 157.5766
243.000000, 101.382, 157.8602
247.000000, 101.356, 158.3190
250.000000, 101.340, 158.7307
254.000000, 101.324, 159.3436
258.000000, 101.318, 160.0102
262.000000, 101.349, 160.5950
265.000000, 101.389, 160.9023
269.000000, 101.429, 161.1206
272.000000, 101.442, 161.2186
276.000000, 101.443, 161.3992
280.000000, 101.434, 161.6616
285.000000, 101.425, 162.0228
290.000000, 101.417, 162.3860
295.000000, 101.402, 162.6874
300.000000, 101.392, 162.9670
304.000000, 101.389, 163.2292
307.000000, 101.388, 163.4325
311.000000, 101.385, 163.7014
315.000000, 101.383, 163.9565
320.000000, 101.383, 164.2791
325.000000, 101.383, 164.5873
330.000000, 101.382, 164.8899
335.000000, 101.384, 165.1896
340.000000, 101.388, 165.4853
345.000000, 101.389, 165.8013
350.000000, 101.385, 166.1149
355.000000, 101.383, 166.3788
360.000000, 101.388, 166.6098
365.000000, 101.395, 166.8800
370.000000, 101.397, 167.1449
375.000000, 101.399, 167.4095
382.000000, 101.396, 167.8115
387.000000, 101.390, 168.1059
395.000000, 101.386, 168.5682
400.000000, 101.384, 168.7871
406.000000, 101.393, 169.0096
412.000000, 101.400, 169.3185
418.000000, 101.392, 169.6507
425.000000, 101.378, 169.9724
431.000000, 101.374, 170.2135
437.000000, 101.368, 170.4821
444.000000, 101.356, 170.8173
450.000000, 101.347, 171.1292
455.000000, 101.339, 171.3620
462.000000, 101.328, 171.6810
468.000000, 101.316, 172.0041
475.000000, 101.299, 172.3741
482.000000, 101.285, 172.7521
487.000000, 101.276, 173.0304
494.000000, 101.262, 173.3881
500.000000, 101.250, 173.6641
508.000000, 101.235, 174.0530
515.000000, 101.218, 174.4308
522.000000, 101.200, 174.8064
530.000000, 101.184, 175.2249
538.000000, 101.160, 175.6386
545.000000, 101.133, 176.0193
552.000000, 101.112, 176.4402
560.000000, 101.091, 176.9170
570.000000, 101.060, 177.4238
580.000000, 101.024, 177.8143
590.000000, 100.972, 178.1261
600.000000, 100.921, 178.3929
608.000000, 100.895, 178.5895
615.000000, 100.877, 178.7300
622.000000, 100.861, 178.8719
630.000000, 100.838, 179.0287
640.000000, 100.800, 179.1671
650.000000, 100.756, 179.3457
660.000000, 100.711, 179.5789
670.000000, 100.666, 179.8284
680.000000, 100.621, -179.9094
690.000000, 100.580, -179.6320
700.000000, 100.538, -179.3163
710.000000, 100.492, -178.9973
720.000000, 100.446, -178.6878
730.000000, 100.404, -178.3670
740.000000, 100.363, -178.0352
750.000000, 100.323, -177.6362
762.000000, 100.280, -177.0960
775.000000, 100.238, -176.5410
788.000000, 100.194, -176.0485
800.000000, 100.149, -175.5169
812.000000, 100.106, -174.9648
825.000000, 100.068, -174.3494
838.000000, 100.034, -173.7330
850.000000, 100.006, -173.1326
862.000000, 99.981, -172.5109
875.000000, 99.956, -171.8389
885.000000, 99.940, -171.3184
900.000000, 99.924, -170.5307
912.000000, 99.914, -169.8697
925.000000, 99.905, -169.1181
938.000000, 99.904, -168.3752
950.000000, 99.909, -167.7148
962.000000, 99.918, -167.0490
975.000000, 99.932, -166.3219
988.000000, 99.950, -165.6111
1000.000000, 99.971, -164.9525
1015.000000, 100.004, -164.1542
1030.000000, 100.043, -163.3926
1044.000000, 100.086, -162.6806
1060.000000, 100.133, -161.8885
1075.000000, 100.181, -161.1696
1090.000000, 100.236, -160.4789
1106.000000, 100.300, -159.7761
1120.000000, 100.357, -159.1938
1138.000000, 100.432, -158.4696
1150.000000, 100.484, -158.0074
1172.000000, 100.584, -157.2257
1180.000000, 100.622, -156.9601
1206.000000, 100.738, -156.1497
1220.000000, 100.796, -155.7327
1241.000000, 100.888, -155.1344
1250.000000, 100.930, -154.8969
1265.000000, 101.003, -154.5187
1280.000000, 101.074, -154.1396
1315.000000, 101.221, -153.3021
1320.000000, 101.241, -153.1899
1340.000000, 101.324, -152.7601
1360.000000, 101.410, -152.3283
1380.000000, 101.495, -151.9052
1400.000000, 101.582, -151.4967
1430.000000, 101.712, -150.9150
1450.000000, 101.798, -150.5492
1475.000000, 101.905, -150.1201
1500.000000, 102.012, -149.6963
1525.000000, 102.115, -149.2933
1550.000000, 102.219, -148.8970
1575.000000, 102.326, -148.4941
1600.000000, 102.434, -148.1133
1625.000000, 102.544, -147.7801
1650.000000, 102.656, -147.4646
1675.000000, 102.766, -147.1630
1700.000000, 102.877, -146.8899
1725.000000, 102.986, -146.6363
1750.000000, 103.094, -146.3816
1775.000000, 103.200, -146.1573
1800.000000, 103.302, -145.9547
1825.000000, 103.403, -145.7227
1850.000000, 103.509, -145.4807
1875.000000, 103.618, -145.2436
1900.000000, 103.727, -145.0171
1925.000000, 103.837, -144.8072
1950.000000, 103.948, -144.5640
1975.000000, 104.056, -144.3032
2000.000000, 104.167, -144.0285
2030.000000, 104.316, -143.6836
2060.000000, 104.480, -143.3804
2090.000000, 104.652, -143.1812
2120.000000, 104.826, -143.0472
2140.000000, 104.941, -142.9655
2180.000000, 105.174, -142.8471
2200.000000, 105.295, -142.8001
2240.000000, 105.546, -142.7599
2270.000000, 105.739, -142.8065
2300.000000, 105.938, -142.8947
2330.000000, 106.150, -143.0266
2360.000000, 106.369, -143.2549
2400.000000, 106.666, -143.7435
2430.000000, 106.890, -144.2587
2470.000000, 107.200, -145.0496
2500.000000, 107.439, -145.7805
2540.000000, 107.748, -147.0203
2580.000000, 108.044, -148.5468
2620.000000, 108.327, -150.3835
2650.000000, 108.519, -151.9297
2690.000000, 108.737, -154.1420
2720.000000, 108.869, -155.8922
2760.000000, 109.003, -158.3637
2800.000000, 109.095, -160.9547
2850.000000, 109.143, -164.1527
2900.000000, 109.123, -167.1223
2950.000000, 109.036, -169.9009
3000.000000, 108.907, -172.4481
3040.000000, 108.788, -174.2707
3070.000000, 108.690, -175.5145
3110.000000, 108.557, -177.0567
3150.000000, 108.422, -178.4919
3200.000000, 108.251, 179.8696
3250.000000, 108.074, 178.3737
3300.000000, 107.891, 177.0145
3350.000000, 107.700, 175.7767
3400.000000, 107.504, 174.6907
3450.000000, 107.311, 173.7655
3500.000000, 107.135, 172.9788
3550.000000, 106.979, 172.2526
3600.000000, 106.830, 171.5126
3650.000000, 106.683, 170.7323
3700.000000, 106.539, 169.9417
3750.000000, 106.397, 169.1270
3820.000000, 106.181, 167.8938
3870.000000, 106.005, 167.0035
3950.000000, 105.687, 165.6727
4000.000000, 105.464, 164.9556
4060.000000, 105.182, 164.3370
4120.000000, 104.901, 163.9608
4180.000000, 104.625, 163.7343
4250.000000, 104.310, 163.6268
4310.000000, 104.049, 163.6467
4370.000000, 103.793, 163.7959
4440.000000, 103.502, 164.1346
4500.000000, 103.263, 164.5803
4550.000000, 103.075, 165.0638
4620.000000, 102.841, 165.8580
4680.000000, 102.672, 166.6010
4750.000000, 102.509, 167.4463
4820.000000, 102.379, 168.1692
4870.000000, 102.299, 168.5737
4940.000000, 102.193, 168.9860
5000.000000, 102.102, 169.2611
5080.000000, 101.977, 169.5450
5150.000000, 101.865, 169.6877
5220.000000, 101.747, 169.6740
5300.000000, 101.592, 169.4881
5380.000000, 101.399, 169.2569
5450.000000, 101.195, 169.1023
5520.000000, 100.970, 169.0607
5600.000000, 100.693, 169.1876
5700.000000, 100.330, 169.5953
5800.000000, 99.959, 170.2821
5900.000000, 99.582, 171.2027
6000.000000, 99.206, 172.3000
6080.000000, 98.902, 173.2670
6150.000000, 98.623, 174.2098
6220.000000, 98.327, 175.2755
6300.000000, 97.963, 176.7159
6400.000000, 97.466, 179.0007
6500.000000, 96.933, -177.9533
6600.000000, 96.393, -173.8115
6700.000000, 95.886, -168.2099
6800.000000, 95.508, -160.7886
6900.000000, 95.421, -151.5870
7000.000000, 95.792, -141.3625
7100.000000, 96.678, -131.5857
7200.000000, 97.997, -123.6771
7300.000000, 99.597, -118.3461
7400.000000, 101.360, -115.6210
7500.000000, 103.236, -115.4001
7620.000000, 105.591, -118.8520
7750.000000, 108.057, -128.3240
7880.000000, 109.944, -144.0981
8000.000000, 110.714, -162.3494
8120.000000, 110.409, 179.3907
8250.000000, 109.124, 163.2180
8380.000000, 107.359, 152.4189
8500.000000, 105.724, 146.6683
8620.000000, 104.280, 143.3793
8750.000000, 102.897, 141.1096
8850.000000, 101.892, 140.0398
9000.000000, 100.461, 139.8466
9120.000000, 99.436, 140.8950
9250.000000, 98.487, 142.7045
9380.000000, 97.700, 144.7703
9500.000000, 97.087, 146.6407
9620.000000, 96.549, 148.3065
9750.000000, 96.022, 149.8045
9880.000000, 95.519, 151.0948
10000.000000, 95.044, 152.2139
10150.000000, 94.434, 153.6760
10300.000000, 93.818, 155.4187
10440.000000, 93.246, 157.3881
10600.000000, 92.618, 160.0657
10750.000000, 92.085, 162.9644
10900.000000, 91.615, 166.1329
11060.000000, 91.178, 169.6620
11200.000000, 90.840, 172.9092
11380.000000, 90.458, 177.3994
11500.000000, 90.241, -179.3358
11720.000000, 89.960, -172.3487
11800.000000, 89.918, -169.3310
12060.000000, 90.338, -157.2857
12200.000000, 91.199, -150.2024
12410.000000, 93.574, -143.3444
12500.000000, 94.860, -143.5321
12650.000000, 96.937, -149.3374
12800.000000, 98.429, -161.2808
13150.000000, 97.819, 165.9224
13200.000000, 97.194, 162.4645
13400.000000, 92.754, 152.9104
13600.000000, 85.041, 148.7072
13800.000000, 75.256, 146.0638
14000.000000, 64.382, 137.1867
14300.000000, 47.672, 79.6537
14500.000000, 40.668, -170.1017
14750.000000, 39.145, -101.5207
15000.000000, 39.121, -125.9138
15250.000000, 39.545, -155.2587
15500.000000, 39.656, 14.8451
15750.000000, 39.651, 120.5927
16000.000000, 39.799, -149.5198
16250.000000, 39.689, -12.5338
16500.000000, 39.635, -33.3231
16750.000000, 39.987, -33.3598
17000.000000, 41.040, 109.8685
17250.000000, 43.645, 99.5944
17500.000000, 44.525, 95.0348
17750.000000, 42.213, -87.5442
18000.000000, 40.560, -89.4698
18250.000000, 40.888, -91.9738
18500.000000, 43.565, -44.2418
18750.000000, 45.448, -32.3724
19000.000000, 43.124, -8.3873
19250.000000, 38.822, 60.2337
19500.000000, 35.415, 142.7307
19750.000000, 32.746, 172.3752
20000.000000, 31.074, 143.9104
