* Measurement data measured by REW V5.31.3
* Source: USB-C to 3.5mm Headphone Jack Adapter, USB-C to 3.5mm Headphone Jack Adapter, 0, volume: 0.470
* Format: 256k Log Swept Sine, 1 sweep at -12.0 dBFS with no timing reference
* Dated: Feb 2, 2025 9:27:52 AM
* REW Settings:
*  C-weighting compensation: Off
*  Target level: 75.0 dB
* Note: ; 
* Measurement: MOONDROP Classic L
* Smoothing: 1/24 octave
* Frequency Step: 1/48 octave
* Start Frequency: 1.000 Hz
*
* Freq(Hz), SPL(dB), Phase(degrees)
1.000000, 85.570, -7.2582
1.015000, 85.776, -8.1731
1.030000, 85.979, -9.0774
1.044000, 86.166, -9.9137
1.060000, 86.379, -10.8623
1.075000, 86.576, -11.7469
1.090000, 86.772, -12.6291
1.106000, 86.978, -13.5715
1.120000, 87.156, -14.4009
1.138000, 87.379, -15.4739
1.150000, 87.525, -16.1917
1.172000, 87.787, -17.5084
1.180000, 87.880, -17.9864
1.206000, 88.177, -19.5323
1.220000, 88.332, -20.3578
1.241000, 88.561, -21.5837
1.250000, 88.657, -22.1038
1.265000, 88.815, -22.9629
1.280000, 88.970, -23.8114
1.315000, 89.323, -25.7454
1.320000, 89.373, -26.0161
1.340000, 89.568, -27.0843
1.360000, 89.760, -28.1283
1.380000, 89.948, -29.1475
1.400000, 90.134, -30.1416
1.430000, 90.407, -31.5849
1.450000, 90.586, -32.5160
1.475000, 90.807, -33.6518
1.500000, 91.022, -34.7729
1.525000, 91.230, -35.8859
1.550000, 91.432, -36.9895
1.575000, 91.628, -38.0817
1.600000, 91.818, -39.1610
1.625000, 92.003, -40.2257
1.650000, 92.183, -41.2747
1.675000, 92.358, -42.3072
1.700000, 92.529, -43.3223
1.725000, 92.696, -44.3195
1.750000, 92.860, -45.2985
1.775000, 93.020, -46.2589
1.800000, 93.178, -47.2011
1.825000, 93.333, -48.1266
1.850000, 93.484, -49.0433
1.875000, 93.632, -49.9603
1.900000, 93.774, -50.8786
1.925000, 93.913, -51.7958
1.950000, 94.047, -52.7090
1.975000, 94.178, -53.6155
2.000000, 94.305, -54.5128
2.030000, 94.454, -55.5741
2.060000, 94.598, -56.6151
2.090000, 94.738, -57.6322
2.120000, 94.875, -58.6225
2.140000, 94.964, -59.2664
2.180000, 95.140, -60.5129
2.200000, 95.226, -61.1172
2.240000, 95.392, -62.3058
2.270000, 95.512, -63.1877
2.300000, 95.628, -64.0613
2.330000, 95.740, -64.9246
2.360000, 95.848, -65.7753
2.400000, 95.987, -66.8866
2.430000, 96.089, -67.7000
2.470000, 96.221, -68.7540
2.500000, 96.318, -69.5190
2.540000, 96.444, -70.5018
2.580000, 96.568, -71.4442
2.620000, 96.688, -72.3577
2.650000, 96.775, -73.0281
2.690000, 96.886, -73.9032
2.720000, 96.967, -74.5452
2.760000, 97.073, -75.3818
2.800000, 97.176, -76.1953
2.850000, 97.302, -77.1781
2.900000, 97.426, -78.1208
2.950000, 97.549, -79.0227
3.000000, 97.669, -79.8880
3.040000, 97.763, -80.5573
3.070000, 97.832, -81.0470
3.110000, 97.922, -81.6848
3.150000, 98.012, -82.3065
3.200000, 98.122, -83.0629
3.250000, 98.232, -83.7975
3.300000, 98.342, -84.5109
3.350000, 98.451, -85.2004
3.400000, 98.560, -85.8659
3.450000, 98.667, -86.5112
3.500000, 98.774, -87.1411
3.550000, 98.879, -87.7600
3.600000, 98.984, -88.3720
3.650000, 99.089, -88.9803
3.700000, 99.192, -89.5841
3.750000, 99.296, -90.1805
3.820000, 99.439, -91.0031
3.870000, 99.541, -91.5837
3.950000, 99.700, -92.5051
4.000000, 99.798, -93.0788
4.060000, 99.912, -93.7674
4.120000, 100.025, -94.4565
4.180000, 100.135, -95.1440
4.250000, 100.261, -95.9412
4.310000, 100.365, -96.6179
4.370000, 100.466, -97.2876
4.440000, 100.579, -98.0636
4.500000, 100.672, -98.7283
4.550000, 100.748, -99.2803
4.620000, 100.849, -100.0439
4.680000, 100.933, -100.6847
4.750000, 101.026, -101.4112
4.820000, 101.115, -102.1184
4.870000, 101.176, -102.6157
4.940000, 101.257, -103.2989
5.000000, 101.324, -103.8684
5.080000, 101.410, -104.5972
5.150000, 101.482, -105.2026
5.220000, 101.552, -105.7813
5.300000, 101.628, -106.4137
5.380000, 101.702, -107.0155
5.450000, 101.766, -107.5159
5.520000, 101.831, -107.9899
5.600000, 101.904, -108.4988
5.700000, 101.995, -109.0937
5.800000, 102.088, -109.6570
5.900000, 102.185, -110.1961
6.000000, 102.285, -110.7057
6.080000, 102.367, -111.0996
6.150000, 102.440, -111.4435
6.220000, 102.514, -111.7923
6.300000, 102.601, -112.1957
6.400000, 102.712, -112.7032
6.500000, 102.825, -113.2235
6.600000, 102.937, -113.7685
6.700000, 103.048, -114.3404
6.800000, 103.158, -114.9340
6.900000, 103.266, -115.5473
7.000000, 103.369, -116.1820
7.100000, 103.467, -116.8396
7.200000, 103.561, -117.5115
7.300000, 103.649, -118.1860
7.400000, 103.730, -118.8618
7.500000, 103.805, -119.5402
7.620000, 103.888, -120.3422
7.750000, 103.968, -121.1773
7.880000, 104.040, -121.9797
8.000000, 104.100, -122.6836
8.120000, 104.157, -123.3413
8.250000, 104.215, -124.0039
8.380000, 104.271, -124.6211
8.500000, 104.325, -125.1508
8.620000, 104.380, -125.6449
8.750000, 104.442, -126.1561
8.850000, 104.492, -126.5394
9.000000, 104.572, -127.1009
9.120000, 104.638, -127.5528
9.250000, 104.712, -128.0572
9.380000, 104.788, -128.5768
9.500000, 104.857, -129.0740
9.620000, 104.925, -129.5919
9.750000, 104.995, -130.1727
9.880000, 105.062, -130.7656
10.000000, 105.119, -131.3211
10.150000, 105.184, -132.0190
10.300000, 105.241, -132.7020
10.440000, 105.289, -133.3202
10.600000, 105.339, -133.9938
10.750000, 105.381, -134.5830
10.900000, 105.422, -135.1336
11.060000, 105.467, -135.6810
11.200000, 105.508, -136.1295
11.380000, 105.565, -136.6838
11.500000, 105.605, -137.0460
11.720000, 105.684, -137.7137
11.800000, 105.713, -137.9636
12.060000, 105.809, -138.8044
12.200000, 105.858, -139.2768
12.410000, 105.925, -139.9989
12.500000, 105.951, -140.3067
12.650000, 105.990, -140.8130
12.800000, 106.025, -141.2987
13.150000, 106.094, -142.3053
13.200000, 106.104, -142.4327
13.400000, 106.145, -142.9015
13.600000, 106.193, -143.3240
13.800000, 106.251, -143.7235
14.000000, 106.317, -144.1381
14.300000, 106.429, -144.8473
14.500000, 106.505, -145.4066
14.750000, 106.589, -146.1971
15.000000, 106.655, -147.0541
15.250000, 106.698, -147.9119
15.500000, 106.719, -148.7012
15.750000, 106.726, -149.3715
16.000000, 106.730, -149.9001
16.250000, 106.741, -150.3098
16.500000, 106.767, -150.6498
16.750000, 106.808, -150.9854
17.000000, 106.859, -151.3708
17.250000, 106.912, -151.8299
17.500000, 106.959, -152.3567
17.750000, 106.995, -152.9155
18.000000, 107.019, -153.4630
18.250000, 107.035, -153.9618
18.500000, 107.048, -154.3950
18.750000, 107.066, -154.7729
19.000000, 107.093, -155.1243
19.250000, 107.128, -155.4900
19.500000, 107.169, -155.9011
19.750000, 107.211, -156.3714
20.000000, 107.247, -156.8934
20.299999, 107.278, -157.5520
20.600000, 107.297, -158.1947
20.900000, 107.307, -158.7800
21.200001, 107.316, -159.2956
21.400000, 107.326, -159.6094
21.799999, 107.353, -160.2106
22.000000, 107.370, -160.5169
22.400000, 107.406, -161.1607
22.700001, 107.428, -161.6583
23.000000, 107.445, -162.1427
23.299999, 107.460, -162.5935
23.600000, 107.474, -163.0042
24.000000, 107.498, -163.5089
24.299999, 107.521, -163.8808
24.700001, 107.554, -164.3964
25.000000, 107.577, -164.7994
25.400000, 107.601, -165.3387
25.799999, 107.620, -165.8540
26.200001, 107.636, -166.3352
26.500000, 107.649, -166.6816
26.900000, 107.666, -167.1418
27.200001, 107.679, -167.4927
27.600000, 107.693, -167.9665
28.000000, 107.704, -168.4355
28.500000, 107.714, -169.0005
29.000000, 107.724, -169.5453
29.500000, 107.736, -170.0865
30.000000, 107.747, -170.6306
30.400000, 107.756, -171.0630
30.700001, 107.762, -171.3822
31.100000, 107.770, -171.7983
31.500000, 107.778, -172.2036
32.000000, 107.790, -172.6985
32.500000, 107.803, -173.1864
33.000000, 107.817, -173.6726
33.500000, 107.828, -174.1555
34.000000, 107.835, -174.6250
34.500000, 107.840, -175.0698
35.000000, 107.843, -175.4868
35.500000, 107.846, -175.8825
36.000000, 107.850, -176.2645
36.500000, 107.856, -176.6407
37.000000, 107.864, -177.0243
37.500000, 107.874, -177.4337
38.200001, 107.884, -178.0663
38.700001, 107.885, -178.5409
39.500000, 107.875, -179.2678
40.000000, 107.866, -179.6784
40.599998, 107.856, 179.8758
41.200001, 107.851, 179.4737
41.799999, 107.852, 179.0965
42.500000, 107.863, 178.6425
43.099998, 107.875, 178.2086
43.700001, 107.882, 177.7329
44.400002, 107.880, 177.1606
45.000000, 107.871, 176.6906
45.500000, 107.861, 176.3201
46.200001, 107.848, 175.8093
46.799999, 107.836, 175.3575
47.500000, 107.818, 174.8306
48.200001, 107.798, 174.3367
48.700001, 107.787, 173.9956
49.400002, 107.774, 173.5058
50.000000, 107.761, 173.0826
50.799999, 107.744, 172.5620
51.500000, 107.736, 172.1285
52.200001, 107.730, 171.6604
53.000000, 107.715, 171.1080
53.799999, 107.693, 170.6141
54.500000, 107.679, 170.2152
55.200001, 107.666, 169.7990
56.000000, 107.650, 169.3045
57.000000, 107.627, 168.6956
58.000000, 107.606, 168.0832
59.000000, 107.585, 167.4618
60.000000, 107.565, 166.8451
60.799999, 107.548, 166.3592
61.500000, 107.533, 165.9406
62.200001, 107.516, 165.5300
63.000000, 107.496, 165.0754
64.000000, 107.469, 164.5317
65.000000, 107.440, 164.0076
66.000000, 107.410, 163.4968
67.000000, 107.379, 162.9919
68.000000, 107.347, 162.4789
69.000000, 107.311, 161.9709
70.000000, 107.275, 161.4827
71.000000, 107.242, 161.0074
72.000000, 107.212, 160.5424
73.000000, 107.186, 160.0594
74.000000, 107.157, 159.5490
75.000000, 107.122, 159.0443
76.199997, 107.073, 158.4878
77.500000, 107.022, 157.9368
78.800003, 106.972, 157.3763
80.000000, 106.926, 156.8629
81.199997, 106.884, 156.3224
82.500000, 106.835, 155.7109
83.800003, 106.784, 155.1217
85.000000, 106.737, 154.6199
86.199997, 106.690, 154.1435
87.500000, 106.638, 153.6481
88.500000, 106.597, 153.2773
90.000000, 106.533, 152.7285
91.199997, 106.481, 152.3026
92.500000, 106.425, 151.8294
93.800003, 106.367, 151.3646
95.000000, 106.315, 150.9539
96.199997, 106.265, 150.5442
97.500000, 106.210, 150.1001
98.800003, 106.154, 149.6744
100.000000, 106.102, 149.2858
101.500000, 106.036, 148.8049
103.000000, 105.966, 148.3430
104.400002, 105.900, 147.9379
106.000000, 105.826, 147.4914
107.500000, 105.758, 147.0753
109.000000, 105.689, 146.6661
110.599998, 105.614, 146.2558
112.000000, 105.548, 145.9255
113.800003, 105.465, 145.5114
115.000000, 105.408, 145.2339
117.199997, 105.302, 144.7290
118.000000, 105.264, 144.5437
120.599998, 105.138, 143.9816
122.000000, 105.071, 143.7225
124.099998, 104.974, 143.3603
125.000000, 104.933, 143.2003
126.500000, 104.864, 142.9308
128.000000, 104.794, 142.6772
131.500000, 104.637, 142.1630
132.000000, 104.615, 142.0959
134.000000, 104.524, 141.8319
136.000000, 104.430, 141.5820
138.000000, 104.337, 141.3515
140.000000, 104.248, 141.1435
143.000000, 104.119, 140.8655
145.000000, 104.033, 140.6947
147.500000, 103.929, 140.5031
150.000000, 103.828, 140.3441
152.500000, 103.729, 140.2420
155.000000, 103.633, 140.1726
157.500000, 103.540, 140.1421
160.000000, 103.452, 140.1259
162.500000, 103.364, 140.1040
165.000000, 103.279, 140.0802
167.500000, 103.201, 140.0685
170.000000, 103.128, 140.0788
172.500000, 103.057, 140.1169
175.000000, 102.988, 140.1721
177.500000, 102.925, 140.2270
180.000000, 102.866, 140.2778
182.500000, 102.809, 140.3339
185.000000, 102.753, 140.4060
187.500000, 102.701, 140.5004
190.000000, 102.655, 140.6090
192.500000, 102.616, 140.6913
195.000000, 102.581, 140.7514
197.500000, 102.550, 140.8240
200.000000, 102.520, 140.9137
203.000000, 102.484, 141.0244
206.000000, 102.450, 141.0966
209.000000, 102.421, 141.1370
212.000000, 102.398, 141.1839
214.000000, 102.385, 141.2249
218.000000, 102.366, 141.2821
220.000000, 102.356, 141.2831
224.000000, 102.337, 141.2798
227.000000, 102.329, 141.2782
230.000000, 102.327, 141.2423
233.000000, 102.322, 141.1759
236.000000, 102.312, 141.0721
240.000000, 102.295, 140.8884
243.000000, 102.279, 140.7861
247.000000, 102.252, 140.7856
250.000000, 102.236, 140.8751
254.000000, 102.236, 141.0866
258.000000, 102.272, 141.3425
262.000000, 102.329, 141.4180
265.000000, 102.364, 141.3672
269.000000, 102.396, 141.3583
272.000000, 102.414, 141.4462
276.000000, 102.433, 141.6181
280.000000, 102.445, 141.7446
285.000000, 102.450, 141.8112
290.000000, 102.447, 141.8503
295.000000, 102.435, 141.8936
300.000000, 102.420, 141.9434
304.000000, 102.413, 142.0359
307.000000, 102.406, 142.1251
311.000000, 102.397, 142.2496
315.000000, 102.389, 142.3650
320.000000, 102.381, 142.5263
325.000000, 102.370, 142.6992
330.000000, 102.358, 142.8825
335.000000, 102.351, 143.0724
340.000000, 102.344, 143.2686
345.000000, 102.333, 143.5179
350.000000, 102.318, 143.7820
355.000000, 102.305, 143.9962
360.000000, 102.300, 144.1985
365.000000, 102.295, 144.4612
370.000000, 102.287, 144.7352
375.000000, 102.281, 145.0311
382.000000, 102.268, 145.5047
387.000000, 102.256, 145.8582
395.000000, 102.244, 146.4385
400.000000, 102.240, 146.7621
406.000000, 102.251, 147.1058
412.000000, 102.266, 147.5258
418.000000, 102.266, 147.9747
425.000000, 102.263, 148.4437
431.000000, 102.269, 148.8088
437.000000, 102.275, 149.2131
444.000000, 102.280, 149.7151
450.000000, 102.288, 150.1676
455.000000, 102.295, 150.5154
462.000000, 102.309, 150.9821
468.000000, 102.320, 151.4204
475.000000, 102.332, 151.9391
482.000000, 102.347, 152.4663
487.000000, 102.359, 152.8403
494.000000, 102.377, 153.3213
500.000000, 102.393, 153.7021
508.000000, 102.415, 154.2314
515.000000, 102.431, 154.7184
522.000000, 102.448, 155.1874
530.000000, 102.470, 155.7155
538.000000, 102.486, 156.2307
545.000000, 102.495, 156.6636
552.000000, 102.503, 157.1261
560.000000, 102.512, 157.6956
570.000000, 102.518, 158.4125
580.000000, 102.526, 159.0994
590.000000, 102.526, 159.8223
600.000000, 102.532, 160.6071
608.000000, 102.544, 161.2504
615.000000, 102.553, 161.7743
622.000000, 102.562, 162.2974
630.000000, 102.570, 162.9004
640.000000, 102.570, 163.6109
650.000000, 102.563, 164.3559
660.000000, 102.553, 165.1706
670.000000, 102.542, 166.0158
680.000000, 102.530, 166.8929
690.000000, 102.519, 167.7993
700.000000, 102.506, 168.7479
710.000000, 102.487, 169.7108
720.000000, 102.469, 170.6820
730.000000, 102.453, 171.6725
740.000000, 102.438, 172.6853
750.000000, 102.423, 173.7723
762.000000, 102.406, 175.1656
775.000000, 102.389, 176.6844
788.000000, 102.373, 178.2172
800.000000, 102.372, 179.7228
812.000000, 102.385, -178.9346
825.000000, 102.391, -177.7796
838.000000, 102.370, -176.9500
850.000000, 102.339, -176.4474
862.000000, 102.319, -176.1259
875.000000, 102.320, -175.7903
885.000000, 102.324, -175.4846
900.000000, 102.335, -175.0313
912.000000, 102.348, -174.6410
925.000000, 102.364, -174.1862
938.000000, 102.386, -173.7377
950.000000, 102.411, -173.3527
962.000000, 102.441, -172.9677
975.000000, 102.477, -172.5462
988.000000, 102.517, -172.1389
1000.000000, 102.558, -171.7619
1015.000000, 102.615, -171.3201
1030.000000, 102.678, -170.9213
1044.000000, 102.743, -170.5608
1060.000000, 102.815, -170.1646
1075.000000, 102.885, -169.8185
1090.000000, 102.961, -169.5084
1106.000000, 103.047, -169.2171
1120.000000, 103.123, -168.9977
1138.000000, 103.220, -168.7487
1150.000000, 103.287, -168.6064
1172.000000, 103.412, -168.4071
1180.000000, 103.459, -168.3505
1206.000000, 103.602, -168.2346
1220.000000, 103.674, -168.2025
1241.000000, 103.784, -168.1790
1250.000000, 103.834, -168.1885
1265.000000, 103.919, -168.2234
1280.000000, 104.000, -168.2627
1315.000000, 104.167, -168.4181
1320.000000, 104.190, -168.4457
1340.000000, 104.282, -168.5729
1360.000000, 104.376, -168.7004
1380.000000, 104.466, -168.8345
1400.000000, 104.556, -168.9862
1430.000000, 104.689, -169.2457
1450.000000, 104.773, -169.4313
1475.000000, 104.878, -169.6923
1500.000000, 104.980, -169.9556
1525.000000, 105.077, -170.2363
1550.000000, 105.172, -170.5116
1575.000000, 105.270, -170.7828
1600.000000, 105.368, -171.0755
1625.000000, 105.466, -171.4143
1650.000000, 105.564, -171.7737
1675.000000, 105.658, -172.1472
1700.000000, 105.751, -172.5437
1725.000000, 105.842, -172.9551
1750.000000, 105.930, -173.3706
1775.000000, 106.014, -173.8194
1800.000000, 106.093, -174.2909
1825.000000, 106.168, -174.7333
1850.000000, 106.247, -175.1624
1875.000000, 106.328, -175.5929
1900.000000, 106.405, -176.0371
1925.000000, 106.482, -176.5030
1950.000000, 106.557, -176.9386
1975.000000, 106.626, -177.3600
2000.000000, 106.696, -177.7708
2030.000000, 106.788, -178.2437
2060.000000, 106.892, -178.7501
2090.000000, 107.002, -179.3537
2120.000000, 107.108, 179.9733
2140.000000, 107.173, 179.5122
2180.000000, 107.296, 178.5496
2200.000000, 107.357, 178.0681
2240.000000, 107.475, 177.0931
2270.000000, 107.560, 176.3270
2300.000000, 107.644, 175.5511
2330.000000, 107.730, 174.7724
2360.000000, 107.814, 173.9612
2400.000000, 107.919, 172.8087
2430.000000, 107.991, 171.8948
2470.000000, 108.091, 170.7246
2500.000000, 108.167, 169.8408
2540.000000, 108.259, 168.5906
2580.000000, 108.345, 167.2947
2620.000000, 108.432, 165.9349
2650.000000, 108.493, 164.8942
2690.000000, 108.564, 163.5239
2720.000000, 108.611, 162.5034
2760.000000, 108.669, 161.0804
2800.000000, 108.726, 159.5540
2850.000000, 108.791, 157.6012
2900.000000, 108.840, 155.6752
2950.000000, 108.862, 153.6712
3000.000000, 108.866, 151.5970
3040.000000, 108.859, 149.9402
3070.000000, 108.846, 148.7077
3110.000000, 108.822, 147.0498
3150.000000, 108.788, 145.3684
3200.000000, 108.730, 143.2745
3250.000000, 108.649, 141.2049
3300.000000, 108.543, 139.1914
3350.000000, 108.411, 137.2472
3400.000000, 108.258, 135.4261
3450.000000, 108.093, 133.7697
3500.000000, 107.932, 132.2793
3550.000000, 107.778, 130.8900
3600.000000, 107.624, 129.5347
3650.000000, 107.467, 128.1885
3700.000000, 107.307, 126.8894
3750.000000, 107.145, 125.6293
3820.000000, 106.904, 123.8654
3870.000000, 106.712, 122.6517
3950.000000, 106.374, 120.9061
4000.000000, 106.145, 119.9844
4060.000000, 105.862, 119.1575
4120.000000, 105.591, 118.6226
4180.000000, 105.335, 118.2790
4250.000000, 105.062, 118.0434
4310.000000, 104.852, 117.9319
4370.000000, 104.658, 117.9091
4440.000000, 104.452, 117.9781
4500.000000, 104.293, 118.1245
4550.000000, 104.174, 118.3071
4620.000000, 104.036, 118.6105
4680.000000, 103.946, 118.8896
4750.000000, 103.871, 119.1570
4820.000000, 103.821, 119.2960
4870.000000, 103.787, 119.3459
4940.000000, 103.709, 119.9191
5000.000000, 103.655, 122.2502
5080.000000, 103.667, 128.7845
5150.000000, 103.666, 136.0924
5220.000000, 103.647, 143.6177
5300.000000, 103.617, 152.2106
5380.000000, 103.568, 160.8660
5450.000000, 103.506, 168.5701
5520.000000, 103.436, 176.4564
5600.000000, 103.355, -174.2871
5700.000000, 103.265, -162.4067
5800.000000, 103.194, -150.2226
5900.000000, 103.145, -137.8062
6000.000000, 103.120, -125.2515
6080.000000, 103.115, -115.1731
6150.000000, 103.111, -106.3080
6220.000000, 103.105, -97.3872
6300.000000, 103.093, -87.0999
6400.000000, 103.068, -74.0425
6500.000000, 103.043, -60.6939
6600.000000, 103.032, -47.0121
6700.000000, 103.034, -32.9996
6800.000000, 103.054, -18.5859
6900.000000, 103.119, -3.7419
7000.000000, 103.260, 11.5189
7100.000000, 103.493, 27.0743
7200.000000, 103.835, 42.7387
7300.000000, 104.294, 58.3200
7400.000000, 104.886, 73.7109
7500.000000, 105.652, 88.7295
7620.000000, 106.849, 105.1824
7750.000000, 108.349, 118.5704
7880.000000, 109.568, 125.6119
8000.000000, 109.924, 128.0199
8120.000000, 109.333, 130.3506
8250.000000, 107.829, 136.8949
8380.000000, 105.885, 149.6512
8500.000000, 104.103, 166.6507
8620.000000, 102.573, -172.8338
8750.000000, 101.275, -148.5996
8850.000000, 100.508, -129.4714
9000.000000, 99.638, -100.8160
9120.000000, 99.103, -78.0783
9250.000000, 98.614, -53.6909
9380.000000, 98.183, -29.3820
9500.000000, 97.818, -6.8659
9620.000000, 97.478, 15.7715
9750.000000, 97.141, 40.4979
9880.000000, 96.841, 65.5244
10000.000000, 96.590, 88.9468
10150.000000, 96.332, 118.6270
10300.000000, 96.145, 148.6443
10440.000000, 96.027, 176.8738
10600.000000, 95.952, -150.5371
10750.000000, 95.961, -119.5750
10900.000000, 96.056, -88.2972
11060.000000, 96.261, -54.6913
11200.000000, 96.533, -25.0717
11380.000000, 97.031, 13.2532
11500.000000, 97.470, 38.8594
11720.000000, 98.528, 85.6835
11800.000000, 99.004, 102.6307
12060.000000, 100.989, 156.9634
12200.000000, 102.386, -175.0667
12410.000000, 104.873, -137.7080
12500.000000, 105.994, -124.6600
12650.000000, 107.665, -108.1962
12800.000000, 108.709, -97.7437
13150.000000, 107.217, -78.8617
13200.000000, 106.514, -76.0833
13400.000000, 101.953, -69.0112
13600.000000, 94.264, -67.1949
13800.000000, 84.509, -66.3768
14000.000000, 73.646, -63.2125
14300.000000, 56.388, 3.6512
14500.000000, 45.501, 40.9979
14750.000000, 39.118, 61.8965
15000.000000, 38.666, 29.1339
15250.000000, 38.995, 13.7349
15500.000000, 39.110, 15.3829
15750.000000, 39.258, 36.8446
16000.000000, 39.359, 77.4524
16250.000000, 39.629, 87.3945
16500.000000, 39.787, 131.7534
16750.000000, 40.045, -149.6636
17000.000000, 40.162, -64.4873
17250.000000, 40.685, -1.7908
17500.000000, 42.704, 35.6467
17750.000000, 44.919, -80.4012
18000.000000, 44.302, -35.4943
18250.000000, 44.816, 100.8650
18500.000000, 46.081, 99.0812
18750.000000, 43.511, 66.1080
19000.000000, 39.587, 5.5365
19250.000000, 37.105, -3.3096
19500.000000, 35.242, -4.5625
19750.000000, 32.969, -8.4297
20000.000000, 31.116, 10.8816
