* Measurement data measured by REW V5.31.3
* Source: USB-C to 3.5mm Headphone Jack Adapter, USB-C to 3.5mm Headphone Jack Adapter, 0, volume: 0.470
* Format: 256k Log Swept Sine, 1 sweep at -12.0 dBFS with no timing reference
* Dated: Feb 2, 2025 9:17:57 AM
* REW Settings:
*  C-weighting compensation: Off
*  Target level: 75.0 dB
* Note: ; 
* Measurement: Standard R
* Smoothing: 1/24 octave
* Frequency Step: 1/48 octave
* Start Frequency: 1.000 Hz
*
* Freq(Hz), SPL(dB), Phase(degrees)
1.000000, 89.413, 2.5005
1.015000, 89.654, 1.5783
1.030000, 89.891, 0.6665
1.044000, 90.110, -0.1771
1.060000, 90.357, -1.1348
1.075000, 90.586, -2.0284
1.090000, 90.812, -2.9201
1.106000, 91.049, -3.8701
1.120000, 91.253, -4.6994
1.138000, 91.510, -5.7607
1.150000, 91.679, -6.4639
1.172000, 91.981, -7.7418
1.180000, 92.089, -8.2024
1.206000, 92.433, -9.6820
1.220000, 92.613, -10.4668
1.241000, 92.880, -11.6274
1.250000, 92.992, -12.1185
1.265000, 93.177, -12.9282
1.280000, 93.359, -13.7269
1.315000, 93.774, -15.5473
1.320000, 93.832, -15.8024
1.340000, 94.062, -16.8107
1.360000, 94.289, -17.7997
1.380000, 94.513, -18.7699
1.400000, 94.734, -19.7219
1.430000, 95.060, -21.1175
1.450000, 95.275, -22.0276
1.475000, 95.539, -23.1450
1.500000, 95.798, -24.2443
1.525000, 96.051, -25.3271
1.550000, 96.297, -26.3938
1.575000, 96.537, -27.4450
1.600000, 96.771, -28.4812
1.625000, 96.999, -29.5034
1.650000, 97.223, -30.5124
1.675000, 97.442, -31.5094
1.700000, 97.656, -32.4957
1.725000, 97.867, -33.4723
1.750000, 98.074, -34.4408
1.775000, 98.278, -35.4023
1.800000, 98.479, -36.3585
1.825000, 98.677, -37.3113
1.850000, 98.871, -38.2637
1.875000, 99.062, -39.2181
1.900000, 99.248, -40.1730
1.925000, 99.430, -41.1262
1.950000, 99.607, -42.0756
1.975000, 99.781, -43.0193
2.000000, 99.951, -43.9558
2.030000, 100.151, -45.0683
2.060000, 100.346, -46.1670
2.090000, 100.537, -47.2506
2.120000, 100.723, -48.3183
2.140000, 100.846, -49.0211
2.180000, 101.086, -50.4059
2.200000, 101.204, -51.0899
2.240000, 101.435, -52.4535
2.270000, 101.602, -53.4762
2.300000, 101.765, -54.4968
2.330000, 101.924, -55.5127
2.360000, 102.078, -56.5213
2.400000, 102.279, -57.8513
2.430000, 102.425, -58.8353
2.470000, 102.615, -60.1264
2.500000, 102.753, -61.0776
2.540000, 102.934, -62.3220
2.580000, 103.110, -63.5449
2.620000, 103.280, -64.7612
2.650000, 103.404, -65.6720
2.690000, 103.563, -66.8818
2.720000, 103.679, -67.7830
2.760000, 103.829, -68.9727
2.800000, 103.974, -70.1453
2.850000, 104.149, -71.5812
2.900000, 104.318, -72.9792
2.950000, 104.481, -74.3436
3.000000, 104.637, -75.6948
3.040000, 104.756, -76.7703
3.070000, 104.842, -77.5718
3.110000, 104.954, -78.6306
3.150000, 105.062, -79.6747
3.200000, 105.192, -80.9539
3.250000, 105.317, -82.1984
3.300000, 105.439, -83.4066
3.350000, 105.555, -84.5899
3.400000, 105.665, -85.7583
3.450000, 105.771, -86.9111
3.500000, 105.871, -88.0444
3.550000, 105.968, -89.1542
3.600000, 106.062, -90.2366
3.650000, 106.153, -91.2889
3.700000, 106.241, -92.3148
3.750000, 106.325, -93.3218
3.820000, 106.437, -94.7029
3.870000, 106.513, -95.6675
3.950000, 106.630, -97.1680
4.000000, 106.701, -98.0763
4.060000, 106.784, -99.1363
4.120000, 106.864, -100.1682
4.180000, 106.941, -101.1759
4.250000, 107.028, -102.3230
4.310000, 107.100, -103.2829
4.370000, 107.171, -104.2216
4.440000, 107.253, -105.2905
4.500000, 107.321, -106.1850
4.550000, 107.377, -106.9168
4.620000, 107.453, -107.9231
4.680000, 107.517, -108.7708
4.750000, 107.590, -109.7450
4.820000, 107.663, -110.7037
4.870000, 107.713, -111.3791
4.940000, 107.783, -112.3124
5.000000, 107.842, -113.1024
5.080000, 107.918, -114.1437
5.150000, 107.982, -115.0458
5.220000, 108.045, -115.9409
5.300000, 108.114, -116.9548
5.380000, 108.181, -117.9574
5.450000, 108.236, -118.8243
5.520000, 108.289, -119.6827
5.600000, 108.347, -120.6569
5.700000, 108.414, -121.8622
5.800000, 108.476, -123.0440
5.900000, 108.532, -124.1977
6.000000, 108.582, -125.3303
6.080000, 108.619, -126.2191
6.150000, 108.648, -126.9790
6.220000, 108.675, -127.7191
6.300000, 108.703, -128.5423
6.400000, 108.733, -129.5415
6.500000, 108.760, -130.5032
6.600000, 108.784, -131.4205
6.700000, 108.806, -132.2927
6.800000, 108.826, -133.1236
6.900000, 108.845, -133.9148
7.000000, 108.865, -134.6652
7.100000, 108.885, -135.3739
7.200000, 108.906, -136.0471
7.300000, 108.929, -136.6924
7.400000, 108.955, -137.3111
7.500000, 108.983, -137.9030
7.620000, 109.021, -138.5908
7.750000, 109.067, -139.3235
7.880000, 109.117, -140.0428
8.000000, 109.167, -140.7063
8.120000, 109.219, -141.3811
8.250000, 109.278, -142.1241
8.380000, 109.338, -142.8837
8.500000, 109.392, -143.6056
8.620000, 109.445, -144.3463
8.750000, 109.499, -145.1652
8.850000, 109.537, -145.8062
9.000000, 109.590, -146.7849
9.120000, 109.626, -147.5722
9.250000, 109.659, -148.4238
9.380000, 109.685, -149.2721
9.500000, 109.703, -150.0409
9.620000, 109.715, -150.7903
9.750000, 109.722, -151.5793
9.880000, 109.724, -152.3345
10.000000, 109.721, -152.9968
10.150000, 109.713, -153.7775
10.300000, 109.701, -154.5002
10.440000, 109.689, -155.1210
10.600000, 109.674, -155.7727
10.750000, 109.661, -156.3308
10.900000, 109.650, -156.8445
11.060000, 109.642, -157.3567
11.200000, 109.639, -157.7797
11.380000, 109.638, -158.3055
11.500000, 109.641, -158.6507
11.720000, 109.648, -159.2823
11.800000, 109.652, -159.5148
12.060000, 109.663, -160.2817
12.200000, 109.668, -160.7015
12.410000, 109.672, -161.3355
12.500000, 109.673, -161.6062
12.650000, 109.673, -162.0543
12.800000, 109.671, -162.4951
13.150000, 109.660, -163.4823
13.200000, 109.658, -163.6181
13.400000, 109.651, -164.1489
13.600000, 109.643, -164.6622
13.800000, 109.636, -165.1615
14.000000, 109.630, -165.6506
14.300000, 109.622, -166.3693
14.500000, 109.618, -166.8396
14.750000, 109.615, -167.4191
15.000000, 109.615, -167.9944
15.250000, 109.620, -168.5775
15.500000, 109.630, -169.1877
15.750000, 109.641, -169.8426
16.000000, 109.651, -170.5540
16.250000, 109.652, -171.3142
16.500000, 109.641, -172.0963
16.750000, 109.615, -172.8546
17.000000, 109.574, -173.5338
17.250000, 109.524, -174.0893
17.500000, 109.476, -174.4962
17.750000, 109.440, -174.7682
18.000000, 109.425, -174.9547
18.250000, 109.435, -175.1280
18.500000, 109.465, -175.3647
18.750000, 109.506, -175.7146
19.000000, 109.547, -176.1926
19.250000, 109.575, -176.7706
19.500000, 109.585, -177.3913
19.750000, 109.576, -177.9894
20.000000, 109.551, -178.5065
20.299999, 109.515, -178.9798
20.600000, 109.485, -179.3053
20.900000, 109.472, -179.5501
21.200001, 109.476, -179.8018
21.400000, 109.484, 179.9934
21.799999, 109.498, 179.4759
22.000000, 109.500, 179.1801
22.400000, 109.485, 178.5920
22.700001, 109.465, 178.2065
23.000000, 109.447, 177.8820
23.299999, 109.436, 177.5928
23.600000, 109.435, 177.2946
24.000000, 109.443, 176.8151
24.299999, 109.449, 176.3777
24.700001, 109.447, 175.7210
25.000000, 109.436, 175.2135
25.400000, 109.413, 174.5693
25.799999, 109.386, 173.9885
26.200001, 109.364, 173.4655
26.500000, 109.352, 173.0966
26.900000, 109.344, 172.6141
27.200001, 109.342, 172.2478
27.600000, 109.343, 171.7429
28.000000, 109.344, 171.2195
28.500000, 109.341, 170.5615
29.000000, 109.332, 169.9381
29.500000, 109.319, 169.3704
30.000000, 109.306, 168.8437
30.400000, 109.292, 168.4381
30.700001, 109.280, 168.1441
31.100000, 109.259, 167.7752
31.500000, 109.235, 167.4420
32.000000, 109.205, 167.0705
32.500000, 109.179, 166.7190
33.000000, 109.154, 166.3564
33.500000, 109.129, 165.9713
34.000000, 109.103, 165.5631
34.500000, 109.077, 165.1306
35.000000, 109.047, 164.6805
35.500000, 109.016, 164.2344
36.000000, 108.985, 163.8108
36.500000, 108.959, 163.4019
37.000000, 108.939, 162.9818
37.500000, 108.920, 162.5369
38.200001, 108.888, 161.9052
38.700001, 108.861, 161.4847
39.500000, 108.816, 160.8884
40.000000, 108.789, 160.5519
40.599998, 108.758, 160.1664
41.200001, 108.727, 159.7829
41.799999, 108.694, 159.3935
42.500000, 108.651, 158.9439
43.099998, 108.614, 158.5627
43.700001, 108.578, 158.1610
44.400002, 108.533, 157.6530
45.000000, 108.489, 157.2219
45.500000, 108.452, 156.8938
46.200001, 108.409, 156.4628
46.799999, 108.379, 156.0638
47.500000, 108.342, 155.5478
48.200001, 108.295, 155.0520
48.700001, 108.258, 154.7442
49.400002, 108.208, 154.3719
50.000000, 108.167, 154.0975
50.799999, 108.118, 153.7878
51.500000, 108.085, 153.5035
52.200001, 108.050, 153.1398
53.000000, 107.993, 152.6944
53.799999, 107.923, 152.3423
54.500000, 107.867, 152.1144
55.200001, 107.824, 151.8973
56.000000, 107.786, 151.5821
57.000000, 107.737, 151.0541
58.000000, 107.673, 150.4887
59.000000, 107.601, 149.9732
60.000000, 107.529, 149.5565
60.799999, 107.481, 149.2515
61.500000, 107.441, 148.9398
62.200001, 107.394, 148.6169
63.000000, 107.336, 148.3056
64.000000, 107.274, 147.9413
65.000000, 107.215, 147.4683
66.000000, 107.141, 146.9221
67.000000, 107.048, 146.4138
68.000000, 106.951, 146.0447
69.000000, 106.872, 145.7721
70.000000, 106.810, 145.4673
71.000000, 106.752, 145.0999
72.000000, 106.691, 144.7047
73.000000, 106.624, 144.3007
74.000000, 106.546, 143.9083
75.000000, 106.454, 143.6283
76.199997, 106.362, 143.5344
77.500000, 106.313, 143.2287
78.800003, 106.225, 142.5573
80.000000, 106.114, 142.1313
81.199997, 106.011, 141.6805
82.500000, 105.872, 141.3221
83.800003, 105.765, 141.2456
85.000000, 105.703, 141.1129
86.199997, 105.658, 140.8367
87.500000, 105.608, 140.3540
88.500000, 105.550, 139.8797
90.000000, 105.417, 139.3779
91.199997, 105.314, 139.2982
92.500000, 105.235, 139.2530
93.800003, 105.154, 139.0845
95.000000, 105.069, 138.9150
96.199997, 104.976, 138.7523
97.500000, 104.878, 138.5887
98.800003, 104.784, 138.4120
100.000000, 104.705, 138.2829
101.500000, 104.619, 138.1433
103.000000, 104.536, 138.0167
104.400002, 104.449, 137.9242
106.000000, 104.337, 137.8744
107.500000, 104.229, 137.8235
109.000000, 104.129, 137.7311
110.599998, 104.035, 137.5964
112.000000, 103.964, 137.5168
113.800003, 103.880, 137.5053
115.000000, 103.817, 137.5566
117.199997, 103.691, 137.6906
118.000000, 103.643, 137.6976
120.599998, 103.501, 137.5610
122.000000, 103.435, 137.4603
124.099998, 103.347, 137.5008
125.000000, 103.308, 137.5568
126.500000, 103.231, 137.7108
128.000000, 103.151, 137.8203
131.500000, 102.966, 137.7225
132.000000, 102.947, 137.7036
134.000000, 102.879, 137.6875
136.000000, 102.817, 137.9277
138.000000, 102.753, 138.1683
140.000000, 102.668, 138.3431
143.000000, 102.558, 138.5177
145.000000, 102.487, 138.6227
147.500000, 102.405, 138.7938
150.000000, 102.319, 138.8980
152.500000, 102.243, 139.1120
155.000000, 102.180, 139.3423
157.500000, 102.107, 139.5696
160.000000, 102.041, 139.8295
162.500000, 101.980, 140.0289
165.000000, 101.920, 140.2085
167.500000, 101.867, 140.3890
170.000000, 101.822, 140.5753
172.500000, 101.781, 140.7723
175.000000, 101.738, 140.9662
177.500000, 101.695, 141.1641
180.000000, 101.653, 141.3574
182.500000, 101.613, 141.5840
185.000000, 101.577, 141.8842
187.500000, 101.551, 142.2681
190.000000, 101.552, 142.6739
192.500000, 101.577, 142.8798
195.000000, 101.604, 142.8938
197.500000, 101.616, 142.8452
200.000000, 101.610, 142.8203
203.000000, 101.590, 142.8362
206.000000, 101.571, 142.8539
209.000000, 101.555, 142.8765
212.000000, 101.547, 142.9066
214.000000, 101.544, 142.9121
218.000000, 101.536, 142.9455
220.000000, 101.533, 142.9517
224.000000, 101.530, 142.9373
227.000000, 101.532, 142.8984
230.000000, 101.530, 142.8501
233.000000, 101.524, 142.8247
236.000000, 101.520, 142.7801
240.000000, 101.514, 142.6380
243.000000, 101.509, 142.5565
247.000000, 101.501, 142.5062
250.000000, 101.492, 142.4787
254.000000, 101.481, 142.4847
258.000000, 101.483, 142.6745
262.000000, 101.525, 142.8788
265.000000, 101.579, 142.8404
269.000000, 101.647, 142.5555
272.000000, 101.683, 142.2468
276.000000, 101.710, 141.8248
280.000000, 101.720, 141.4351
285.000000, 101.726, 141.0185
290.000000, 101.728, 140.6045
295.000000, 101.724, 140.1749
300.000000, 101.725, 139.7320
304.000000, 101.729, 139.4250
307.000000, 101.732, 139.2284
311.000000, 101.735, 138.9536
315.000000, 101.737, 138.6060
320.000000, 101.741, 138.1841
325.000000, 101.750, 137.7921
330.000000, 101.756, 137.3858
335.000000, 101.763, 136.9734
340.000000, 101.775, 136.5455
345.000000, 101.781, 136.1214
350.000000, 101.777, 135.6645
355.000000, 101.765, 135.1830
360.000000, 101.758, 134.7518
365.000000, 101.755, 134.4641
370.000000, 101.753, 134.2508
375.000000, 101.761, 134.1141
382.000000, 101.776, 134.0789
387.000000, 101.788, 134.1449
395.000000, 101.800, 134.3639
400.000000, 101.797, 134.4677
406.000000, 101.802, 134.5318
412.000000, 101.812, 134.6945
418.000000, 101.811, 134.8965
425.000000, 101.806, 135.0759
431.000000, 101.810, 135.1882
437.000000, 101.811, 135.3348
444.000000, 101.807, 135.5301
450.000000, 101.805, 135.7370
455.000000, 101.802, 135.9048
462.000000, 101.800, 136.2086
468.000000, 101.809, 136.5793
475.000000, 101.836, 136.9045
482.000000, 101.859, 137.0518
487.000000, 101.865, 137.1513
494.000000, 101.863, 137.3231
500.000000, 101.862, 137.4895
508.000000, 101.864, 137.7743
515.000000, 101.866, 138.0729
522.000000, 101.868, 138.3640
530.000000, 101.875, 138.6999
538.000000, 101.878, 139.0323
545.000000, 101.876, 139.3118
552.000000, 101.877, 139.6258
560.000000, 101.878, 140.0295
570.000000, 101.877, 140.5427
580.000000, 101.880, 141.0271
590.000000, 101.878, 141.5184
600.000000, 101.876, 142.0414
608.000000, 101.876, 142.4932
615.000000, 101.874, 142.8973
622.000000, 101.875, 143.3339
630.000000, 101.880, 143.8503
640.000000, 101.882, 144.4472
650.000000, 101.882, 145.0580
660.000000, 101.881, 145.7167
670.000000, 101.880, 146.3931
680.000000, 101.881, 147.0937
690.000000, 101.884, 147.8109
700.000000, 101.886, 148.5609
710.000000, 101.884, 149.3184
720.000000, 101.884, 150.0709
730.000000, 101.888, 150.8360
740.000000, 101.894, 151.6120
750.000000, 101.902, 152.4442
762.000000, 101.911, 153.4866
775.000000, 101.918, 154.6183
788.000000, 101.926, 155.7361
800.000000, 101.934, 156.8313
812.000000, 101.942, 157.9489
825.000000, 101.957, 159.1754
838.000000, 101.974, 160.4030
850.000000, 101.992, 161.5662
862.000000, 102.011, 162.7659
875.000000, 102.034, 164.0661
885.000000, 102.053, 165.0642
900.000000, 102.087, 166.5732
912.000000, 102.115, 167.8089
925.000000, 102.146, 169.1786
938.000000, 102.180, 170.5509
950.000000, 102.213, 171.7948
962.000000, 102.248, 173.0411
975.000000, 102.285, 174.4038
988.000000, 102.321, 175.7637
1000.000000, 102.356, 177.0444
1015.000000, 102.402, 178.6353
1030.000000, 102.448, -179.8232
1044.000000, 102.488, -178.3932
1060.000000, 102.512, -176.7469
1075.000000, 102.521, -175.0854
1090.000000, 102.541, -173.2973
1106.000000, 102.576, -171.3926
1120.000000, 102.605, -169.7461
1138.000000, 102.633, -167.6021
1150.000000, 102.649, -166.0897
1172.000000, 102.710, -163.2650
1180.000000, 102.740, -162.3342
1206.000000, 102.801, -159.9169
1220.000000, 102.807, -158.9931
1241.000000, 102.845, -157.9975
1250.000000, 102.883, -157.6252
1265.000000, 102.966, -156.9795
1280.000000, 103.059, -156.3309
1315.000000, 103.303, -155.0302
1320.000000, 103.341, -154.8734
1340.000000, 103.504, -154.3382
1360.000000, 103.676, -153.9281
1380.000000, 103.848, -153.6412
1400.000000, 104.017, -153.4717
1430.000000, 104.258, -153.4069
1450.000000, 104.405, -153.4469
1475.000000, 104.577, -153.5395
1500.000000, 104.743, -153.6559
1525.000000, 104.902, -153.8354
1550.000000, 105.053, -154.0705
1575.000000, 105.193, -154.3390
1600.000000, 105.322, -154.6161
1625.000000, 105.443, -154.9029
1650.000000, 105.563, -155.1669
1675.000000, 105.680, -155.4192
1700.000000, 105.795, -155.6877
1725.000000, 105.907, -155.9625
1750.000000, 106.016, -156.2277
1775.000000, 106.123, -156.5138
1800.000000, 106.225, -156.8119
1825.000000, 106.325, -157.0857
1850.000000, 106.429, -157.3542
1875.000000, 106.535, -157.6189
1900.000000, 106.639, -157.8929
1925.000000, 106.746, -158.1904
1950.000000, 106.853, -158.4674
1975.000000, 106.957, -158.7527
2000.000000, 107.060, -159.0618
2030.000000, 107.188, -159.4508
2060.000000, 107.317, -159.8492
2090.000000, 107.451, -160.2524
2120.000000, 107.596, -160.6549
2140.000000, 107.698, -160.9460
2180.000000, 107.911, -161.7186
2200.000000, 108.017, -162.1887
2240.000000, 108.216, -163.2314
2270.000000, 108.354, -164.0896
2300.000000, 108.488, -164.9890
2330.000000, 108.622, -165.9344
2360.000000, 108.749, -166.9570
2400.000000, 108.903, -168.4421
2430.000000, 109.006, -169.6505
2470.000000, 109.134, -171.2700
2500.000000, 109.221, -172.5189
2540.000000, 109.313, -174.2727
2580.000000, 109.379, -176.0760
2620.000000, 109.427, -177.9234
2650.000000, 109.449, -179.2991
2690.000000, 109.453, 178.9410
2720.000000, 109.441, 177.6796
2760.000000, 109.409, 176.0137
2800.000000, 109.370, 174.3357
2850.000000, 109.301, 172.3395
2900.000000, 109.210, 170.5789
2950.000000, 109.101, 168.9485
3000.000000, 108.990, 167.3652
3040.000000, 108.900, 166.1541
3070.000000, 108.828, 165.2833
3110.000000, 108.729, 164.1458
3150.000000, 108.627, 163.0338
3200.000000, 108.495, 161.7208
3250.000000, 108.354, 160.4865
3300.000000, 108.204, 159.3429
3350.000000, 108.044, 158.3019
3400.000000, 107.881, 157.4094
3450.000000, 107.728, 156.6584
3500.000000, 107.601, 155.9857
3550.000000, 107.498, 155.3087
3600.000000, 107.409, 154.5276
3650.000000, 107.323, 153.5276
3700.000000, 107.216, 152.3532
3750.000000, 107.077, 151.1454
3820.000000, 106.834, 149.5768
3870.000000, 106.639, 148.5986
3950.000000, 106.308, 147.2458
4000.000000, 106.089, 146.5312
4060.000000, 105.822, 145.8510
4120.000000, 105.556, 145.3150
4180.000000, 105.285, 144.8833
4250.000000, 104.961, 144.5227
4310.000000, 104.682, 144.3487
4370.000000, 104.399, 144.3689
4440.000000, 104.075, 144.6811
4500.000000, 103.819, 145.1802
4550.000000, 103.625, 145.7000
4620.000000, 103.383, 146.4804
4680.000000, 103.195, 147.1904
4750.000000, 102.996, 148.0845
4820.000000, 102.824, 149.0449
4870.000000, 102.723, 149.7404
4940.000000, 102.610, 150.6663
5000.000000, 102.537, 151.4031
5080.000000, 102.460, 152.2701
5150.000000, 102.407, 152.9049
5220.000000, 102.366, 153.3817
5300.000000, 102.327, 153.7199
5380.000000, 102.284, 153.8941
5450.000000, 102.236, 153.9218
5520.000000, 102.176, 153.8532
5600.000000, 102.088, 153.7097
5700.000000, 101.945, 153.4957
5800.000000, 101.769, 153.3565
5900.000000, 101.567, 153.3496
6000.000000, 101.349, 153.4573
6080.000000, 101.168, 153.6328
6150.000000, 101.002, 153.8737
6220.000000, 100.827, 154.2005
6300.000000, 100.619, 154.6863
6400.000000, 100.341, 155.4645
6500.000000, 100.034, 156.4973
6600.000000, 99.696, 158.0544
6700.000000, 99.348, 160.4705
6800.000000, 99.047, 163.9976
6900.000000, 98.898, 168.6422
7000.000000, 99.005, 174.0137
7100.000000, 99.385, 179.4869
7200.000000, 99.984, -174.2618
7300.000000, 100.803, -165.2402
7400.000000, 101.736, -154.2353
7500.000000, 102.710, -143.4260
7620.000000, 103.970, -131.9836
7750.000000, 105.388, -122.8370
7880.000000, 106.537, -118.1788
8000.000000, 106.988, -116.5923
8120.000000, 106.764, -114.5774
8250.000000, 106.025, -109.4058
8380.000000, 105.124, -100.9589
8500.000000, 104.318, -91.3084
8620.000000, 103.543, -80.8568
8750.000000, 102.661, -69.0217
8850.000000, 101.922, -59.3890
9000.000000, 100.720, -43.5789
9120.000000, 99.714, -29.3419
9250.000000, 98.654, -12.2615
9380.000000, 97.696, 6.2680
9500.000000, 96.932, 24.2866
9620.000000, 96.287, 42.8327
9750.000000, 95.718, 63.2514
9880.000000, 95.269, 83.8558
10000.000000, 94.935, 102.9497
10150.000000, 94.612, 126.8215
10300.000000, 94.376, 150.6900
10440.000000, 94.220, 172.9510
10600.000000, 94.107, -161.6045
10750.000000, 94.075, -137.7294
10900.000000, 94.110, -113.9449
11060.000000, 94.212, -88.8010
11200.000000, 94.340, -66.9547
11380.000000, 94.556, -39.0276
11500.000000, 94.739, -20.5090
11720.000000, 95.182, 13.1682
11800.000000, 95.384, 25.2673
12060.000000, 96.233, 63.4214
12200.000000, 96.811, 82.4572
12410.000000, 97.704, 107.0485
12500.000000, 98.005, 115.5370
12650.000000, 98.192, 126.7104
12800.000000, 97.732, 135.2627
13150.000000, 93.368, 159.8990
13200.000000, 92.365, 164.1333
13400.000000, 86.999, 176.0531
13600.000000, 78.993, 179.8148
13800.000000, 69.110, -177.8494
14000.000000, 58.232, -153.8557
14300.000000, 43.194, -151.6499
14500.000000, 39.736, 97.9822
14750.000000, 39.239, 85.0503
15000.000000, 39.519, 75.0597
15250.000000, 40.048, 47.0284
15500.000000, 39.790, 39.7208
15750.000000, 39.893, 64.5601
16000.000000, 40.325, 106.5913
16250.000000, 40.544, 101.4513
16500.000000, 40.246, 96.3633
16750.000000, 41.135, 87.5110
17000.000000, 44.069, 109.9777
17250.000000, 44.792, 96.2336
17500.000000, 41.941, 11.2234
17750.000000, 39.797, -47.2703
18000.000000, 39.760, 47.5051
18250.000000, 39.484, 24.9434
18500.000000, 40.213, 17.9545
18750.000000, 43.363, 12.2834
19000.000000, 44.801, 7.9738
19250.000000, 41.833, 5.3766
19500.000000, 36.920, 30.2526
19750.000000, 33.311, 97.3165
20000.000000, 31.823, 118.8024
