* Measurement data measured by REW V5.31.3
* Source: USB-C to 3.5mm Headphone Jack Adapter, USB-C to 3.5mm Headphone Jack Adapter, 0, volume: 0.470
* Format: 256k Log Swept Sine, 1 sweep at -12.0 dBFS with no timing reference
* Dated: Feb 2, 2025 9:27:31 AM
* REW Settings:
*  C-weighting compensation: Off
*  Target level: 75.0 dB
* Note: ; 
* Measurement: POP Style L
* Smoothing: 1/24 octave
* Frequency Step: 1/48 octave
* Start Frequency: 1.000 Hz
*
* Freq(Hz), SPL(dB), Phase(degrees)
1.000000, 87.939, 8.4915
1.015000, 88.164, 7.6699
1.030000, 88.386, 6.8534
1.044000, 88.592, 6.0945
1.060000, 88.825, 5.2291
1.075000, 89.042, 4.4180
1.090000, 89.258, 3.6059
1.106000, 89.486, 2.7385
1.120000, 89.683, 1.9810
1.138000, 89.931, 1.0122
1.150000, 90.095, 0.3704
1.172000, 90.388, -0.7957
1.180000, 90.494, -1.2161
1.206000, 90.830, -2.5676
1.220000, 91.007, -3.2853
1.241000, 91.269, -4.3480
1.250000, 91.379, -4.7983
1.265000, 91.561, -5.5417
1.280000, 91.741, -6.2763
1.315000, 92.152, -7.9560
1.320000, 92.210, -8.1920
1.340000, 92.439, -9.1269
1.360000, 92.665, -10.0469
1.380000, 92.888, -10.9526
1.400000, 93.108, -11.8446
1.430000, 93.434, -13.1587
1.450000, 93.648, -14.0198
1.475000, 93.912, -15.0807
1.500000, 94.172, -16.1252
1.525000, 94.425, -17.1537
1.550000, 94.672, -18.1666
1.575000, 94.915, -19.1649
1.600000, 95.152, -20.1495
1.625000, 95.384, -21.1215
1.650000, 95.611, -22.0822
1.675000, 95.834, -23.0329
1.700000, 96.053, -23.9750
1.725000, 96.269, -24.9098
1.750000, 96.480, -25.8388
1.775000, 96.689, -26.7636
1.800000, 96.895, -27.6855
1.825000, 97.097, -28.6065
1.850000, 97.297, -29.5285
1.875000, 97.492, -30.4526
1.900000, 97.684, -31.3770
1.925000, 97.871, -32.2996
1.950000, 98.054, -33.2184
1.975000, 98.234, -34.1316
2.000000, 98.410, -35.0379
2.030000, 98.617, -36.1150
2.060000, 98.819, -37.1791
2.090000, 99.018, -38.2294
2.120000, 99.212, -39.2652
2.140000, 99.339, -39.9477
2.180000, 99.590, -41.2940
2.200000, 99.713, -41.9599
2.240000, 99.953, -43.2879
2.270000, 100.128, -44.2839
2.300000, 100.298, -45.2777
2.330000, 100.464, -46.2666
2.360000, 100.627, -47.2481
2.400000, 100.837, -48.5420
2.430000, 100.991, -49.4988
2.470000, 101.191, -50.7540
2.500000, 101.337, -51.6784
2.540000, 101.528, -52.8876
2.580000, 101.714, -54.0754
2.620000, 101.894, -55.2562
2.650000, 102.025, -56.1398
2.690000, 102.194, -57.3125
2.720000, 102.318, -58.1854
2.760000, 102.477, -59.3366
2.800000, 102.632, -60.4700
2.850000, 102.820, -61.8560
2.900000, 103.002, -63.2032
2.950000, 103.177, -64.5155
3.000000, 103.346, -65.8120
3.040000, 103.475, -66.8418
3.070000, 103.570, -67.6081
3.110000, 103.692, -68.6190
3.150000, 103.810, -69.6144
3.200000, 103.954, -70.8322
3.250000, 104.093, -72.0153
3.300000, 104.228, -73.1622
3.350000, 104.359, -74.2824
3.400000, 104.484, -75.3853
3.450000, 104.605, -76.4705
3.500000, 104.721, -77.5353
3.550000, 104.833, -78.5769
3.600000, 104.943, -79.5923
3.650000, 105.050, -80.5795
3.700000, 105.155, -81.5413
3.750000, 105.256, -82.4835
3.820000, 105.393, -83.7731
3.870000, 105.487, -84.6728
3.950000, 105.633, -86.0732
4.000000, 105.723, -86.9229
4.060000, 105.829, -87.9168
4.120000, 105.932, -88.8857
4.180000, 106.032, -89.8327
4.250000, 106.146, -90.9122
4.310000, 106.242, -91.8174
4.370000, 106.336, -92.7053
4.440000, 106.444, -93.7205
4.500000, 106.535, -94.5736
4.550000, 106.610, -95.2734
4.620000, 106.712, -96.2376
4.680000, 106.798, -97.0509
4.750000, 106.896, -97.9860
4.820000, 106.993, -98.9079
4.870000, 107.060, -99.5589
4.940000, 107.153, -100.4596
5.000000, 107.230, -101.2218
5.080000, 107.331, -102.2236
5.150000, 107.416, -103.0879
5.220000, 107.499, -103.9432
5.300000, 107.591, -104.9095
5.380000, 107.680, -105.8616
5.450000, 107.755, -106.6810
5.520000, 107.828, -107.4876
5.600000, 107.908, -108.3973
5.700000, 108.003, -109.5160
5.800000, 108.094, -110.6089
5.900000, 108.181, -111.6728
6.000000, 108.263, -112.7119
6.080000, 108.327, -113.5258
6.150000, 108.380, -114.2241
6.220000, 108.432, -114.9084
6.300000, 108.490, -115.6741
6.400000, 108.559, -116.6090
6.500000, 108.626, -117.5199
6.600000, 108.690, -118.4068
6.700000, 108.753, -119.2702
6.800000, 108.813, -120.1120
6.900000, 108.872, -120.9339
7.000000, 108.929, -121.7369
7.100000, 108.985, -122.5220
7.200000, 109.040, -123.2900
7.300000, 109.093, -124.0424
7.400000, 109.144, -124.7802
7.500000, 109.194, -125.5037
7.620000, 109.253, -126.3540
7.750000, 109.314, -127.2542
7.880000, 109.373, -128.1337
8.000000, 109.425, -128.9277
8.120000, 109.476, -129.7049
8.250000, 109.529, -130.5287
8.380000, 109.580, -131.3340
8.500000, 109.625, -132.0611
8.620000, 109.668, -132.7733
8.750000, 109.713, -133.5278
8.850000, 109.747, -134.0961
9.000000, 109.795, -134.9297
9.120000, 109.833, -135.5800
9.250000, 109.872, -136.2679
9.380000, 109.909, -136.9390
9.500000, 109.943, -137.5445
9.620000, 109.976, -138.1365
9.750000, 110.011, -138.7640
9.880000, 110.046, -139.3795
10.000000, 110.078, -139.9381
10.150000, 110.117, -140.6257
10.300000, 110.156, -141.3064
10.440000, 110.191, -141.9373
10.600000, 110.231, -142.6553
10.750000, 110.266, -143.3282
10.900000, 110.299, -143.9992
11.060000, 110.330, -144.7098
11.200000, 110.354, -145.3255
11.380000, 110.381, -146.0986
11.500000, 110.395, -146.5992
11.720000, 110.418, -147.4770
11.800000, 110.425, -147.7805
12.060000, 110.447, -148.7103
12.200000, 110.460, -149.1765
12.410000, 110.483, -149.8419
12.500000, 110.495, -150.1204
12.650000, 110.518, -150.5801
12.800000, 110.543, -151.0445
13.150000, 110.608, -152.1867
13.200000, 110.617, -152.3585
13.400000, 110.651, -153.0673
13.600000, 110.678, -153.7963
13.800000, 110.697, -154.5280
14.000000, 110.707, -155.2321
14.300000, 110.710, -156.1910
14.500000, 110.711, -156.7439
14.750000, 110.719, -157.3496
15.000000, 110.743, -157.8997
15.250000, 110.784, -158.4639
15.500000, 110.838, -159.1090
15.750000, 110.896, -159.8732
16.000000, 110.944, -160.7584
16.250000, 110.971, -161.7182
16.500000, 110.974, -162.6847
16.750000, 110.953, -163.5786
17.000000, 110.915, -164.3364
17.250000, 110.872, -164.9292
17.500000, 110.835, -165.3629
17.750000, 110.813, -165.6815
18.000000, 110.809, -165.9428
18.250000, 110.822, -166.2037
18.500000, 110.847, -166.5034
18.750000, 110.877, -166.8567
19.000000, 110.909, -167.2618
19.250000, 110.937, -167.7062
19.500000, 110.963, -168.1785
19.750000, 110.985, -168.6706
20.000000, 111.002, -169.1771
20.299999, 111.015, -169.7928
20.600000, 111.018, -170.3952
20.900000, 111.012, -170.9541
21.200001, 111.001, -171.4458
21.400000, 110.995, -171.7351
21.799999, 110.993, -172.2610
22.000000, 110.999, -172.5271
22.400000, 111.017, -173.1312
22.700001, 111.026, -173.6603
23.000000, 111.024, -174.2205
23.299999, 111.008, -174.7542
23.600000, 110.985, -175.2114
24.000000, 110.961, -175.6907
24.299999, 110.960, -176.0114
24.700001, 110.979, -176.5220
25.000000, 110.997, -177.0247
25.400000, 111.001, -177.8218
25.799999, 110.972, -178.6097
26.200001, 110.923, -179.2168
26.500000, 110.892, -179.5249
26.900000, 110.880, -179.8350
27.200001, 110.893, 179.8986
27.600000, 110.924, 179.3791
28.000000, 110.944, 178.6758
28.500000, 110.925, 177.7444
29.000000, 110.875, 177.0187
29.500000, 110.835, 176.5483
30.000000, 110.827, 176.1527
30.400000, 110.834, 175.7731
30.700001, 110.840, 175.4384
31.100000, 110.842, 174.9507
31.500000, 110.837, 174.4461
32.000000, 110.825, 173.8104
32.500000, 110.802, 173.1779
33.000000, 110.769, 172.5898
33.500000, 110.732, 172.0853
34.000000, 110.703, 171.6308
34.500000, 110.681, 171.1490
35.000000, 110.656, 170.6261
35.500000, 110.621, 170.1311
36.000000, 110.591, 169.7013
36.500000, 110.575, 169.2602
37.000000, 110.566, 168.7082
37.500000, 110.540, 168.0651
38.200001, 110.472, 167.2602
38.700001, 110.424, 166.8400
39.500000, 110.379, 166.2164
40.000000, 110.355, 165.7583
40.599998, 110.317, 165.2031
41.200001, 110.278, 164.7113
41.799999, 110.245, 164.2595
42.500000, 110.215, 163.7249
43.099998, 110.192, 163.2374
43.700001, 110.165, 162.7121
44.400002, 110.123, 162.0981
45.000000, 110.082, 161.6317
45.500000, 110.051, 161.2716
46.200001, 110.013, 160.7288
46.799999, 109.973, 160.2258
47.500000, 109.914, 159.6882
48.200001, 109.858, 159.2258
48.700001, 109.823, 158.8991
49.400002, 109.772, 158.4244
50.000000, 109.726, 158.0359
50.799999, 109.670, 157.5657
51.500000, 109.631, 157.1236
52.200001, 109.588, 156.6077
53.000000, 109.521, 156.0355
53.799999, 109.449, 155.5930
54.500000, 109.399, 155.2516
55.200001, 109.356, 154.8591
56.000000, 109.298, 154.3641
57.000000, 109.218, 153.8015
58.000000, 109.146, 153.2708
59.000000, 109.075, 152.6826
60.000000, 108.997, 152.1291
60.799999, 108.940, 151.7205
61.500000, 108.893, 151.3460
62.200001, 108.843, 150.9576
63.000000, 108.781, 150.5347
64.000000, 108.699, 150.0807
65.000000, 108.619, 149.6926
66.000000, 108.545, 149.3220
67.000000, 108.472, 148.9182
68.000000, 108.391, 148.4824
69.000000, 108.303, 148.0698
70.000000, 108.215, 147.7013
71.000000, 108.133, 147.3620
72.000000, 108.059, 147.0118
73.000000, 107.986, 146.6290
74.000000, 107.909, 146.2407
75.000000, 107.825, 145.8979
76.199997, 107.726, 145.5607
77.500000, 107.622, 145.2072
78.800003, 107.516, 144.8591
80.000000, 107.421, 144.5204
81.199997, 107.326, 144.1345
82.500000, 107.217, 143.7250
83.800003, 107.107, 143.4029
85.000000, 107.014, 143.1751
86.199997, 106.925, 142.9671
87.500000, 106.831, 142.7561
88.500000, 106.756, 142.5793
90.000000, 106.635, 142.3092
91.199997, 106.536, 142.0930
92.500000, 106.426, 141.8751
93.800003, 106.319, 141.6862
95.000000, 106.224, 141.5508
96.199997, 106.134, 141.4252
97.500000, 106.037, 141.2948
98.800003, 105.939, 141.1924
100.000000, 105.850, 141.1075
101.500000, 105.739, 141.0225
103.000000, 105.632, 140.9373
104.400002, 105.530, 140.8737
106.000000, 105.418, 140.8516
107.500000, 105.317, 140.8279
109.000000, 105.217, 140.8351
110.599998, 105.113, 140.8572
112.000000, 105.022, 140.9179
113.800003, 104.909, 141.0042
115.000000, 104.832, 141.0454
117.199997, 104.689, 141.1415
118.000000, 104.639, 141.1717
120.599998, 104.481, 141.2708
122.000000, 104.399, 141.3727
124.099998, 104.286, 141.5517
125.000000, 104.238, 141.6237
126.500000, 104.158, 141.7498
128.000000, 104.079, 141.8874
131.500000, 103.907, 142.2376
132.000000, 103.882, 142.2895
134.000000, 103.785, 142.5143
136.000000, 103.689, 142.7452
138.000000, 103.596, 142.9701
140.000000, 103.509, 143.2025
143.000000, 103.386, 143.5714
145.000000, 103.308, 143.8252
147.500000, 103.212, 144.1371
150.000000, 103.121, 144.5041
152.500000, 103.039, 144.8680
155.000000, 102.956, 145.2144
157.500000, 102.876, 145.6047
160.000000, 102.804, 145.9930
162.500000, 102.734, 146.3729
165.000000, 102.665, 146.7401
167.500000, 102.604, 147.0912
170.000000, 102.547, 147.4565
172.500000, 102.495, 147.8291
175.000000, 102.446, 148.2080
177.500000, 102.402, 148.5445
180.000000, 102.361, 148.8803
182.500000, 102.321, 149.1833
185.000000, 102.278, 149.5159
187.500000, 102.236, 149.8467
190.000000, 102.197, 150.2172
192.500000, 102.171, 150.5788
195.000000, 102.147, 150.8847
197.500000, 102.125, 151.2533
200.000000, 102.109, 151.6227
203.000000, 102.081, 152.0647
206.000000, 102.062, 152.5316
209.000000, 102.050, 152.9095
212.000000, 102.036, 153.3507
214.000000, 102.030, 153.6901
218.000000, 102.021, 154.2777
220.000000, 102.011, 154.5242
224.000000, 101.985, 155.0739
227.000000, 101.980, 155.4895
230.000000, 101.979, 155.8291
233.000000, 101.968, 156.1417
236.000000, 101.948, 156.4628
240.000000, 101.924, 156.9121
243.000000, 101.912, 157.2801
247.000000, 101.898, 157.8453
250.000000, 101.892, 158.2983
254.000000, 101.893, 158.9153
258.000000, 101.908, 159.6048
262.000000, 101.955, 160.2202
265.000000, 102.001, 160.4941
269.000000, 102.046, 160.6725
272.000000, 102.057, 160.7945
276.000000, 102.048, 161.0040
280.000000, 102.030, 161.2299
285.000000, 102.010, 161.4812
290.000000, 102.009, 161.7417
295.000000, 102.008, 162.0952
300.000000, 101.992, 162.4639
304.000000, 101.982, 162.7147
307.000000, 101.980, 162.9173
311.000000, 101.977, 163.2350
315.000000, 101.970, 163.5227
320.000000, 101.965, 163.8772
325.000000, 101.957, 164.2457
330.000000, 101.953, 164.5980
335.000000, 101.953, 164.9568
340.000000, 101.952, 165.3160
345.000000, 101.949, 165.7106
350.000000, 101.941, 166.0968
355.000000, 101.934, 166.4359
360.000000, 101.935, 166.7477
365.000000, 101.939, 167.1028
370.000000, 101.938, 167.4620
375.000000, 101.936, 167.8337
382.000000, 101.929, 168.4020
387.000000, 101.922, 168.8067
395.000000, 101.914, 169.4330
400.000000, 101.910, 169.7642
406.000000, 101.920, 170.1316
412.000000, 101.930, 170.5828
418.000000, 101.925, 171.0469
425.000000, 101.915, 171.5360
431.000000, 101.914, 171.9284
437.000000, 101.911, 172.3477
444.000000, 101.903, 172.8622
450.000000, 101.901, 173.3239
455.000000, 101.899, 173.6824
462.000000, 101.896, 174.1799
468.000000, 101.893, 174.6450
475.000000, 101.886, 175.1901
482.000000, 101.882, 175.7474
487.000000, 101.881, 176.1511
494.000000, 101.879, 176.6859
500.000000, 101.880, 177.1153
508.000000, 101.882, 177.7078
515.000000, 101.881, 178.2563
522.000000, 101.880, 178.7868
530.000000, 101.882, 179.3924
538.000000, 101.879, 179.9971
545.000000, 101.872, -179.4785
552.000000, 101.866, -178.9266
560.000000, 101.859, -178.2597
570.000000, 101.848, -177.4293
580.000000, 101.843, -176.6257
590.000000, 101.832, -175.8046
600.000000, 101.824, -174.8965
608.000000, 101.831, -174.1128
615.000000, 101.844, -173.4852
622.000000, 101.862, -172.9232
630.000000, 101.877, -172.3668
640.000000, 101.879, -171.8305
650.000000, 101.865, -171.3805
660.000000, 101.847, -171.0023
670.000000, 101.837, -170.6746
680.000000, 101.834, -170.3225
690.000000, 101.834, -169.9422
700.000000, 101.832, -169.5498
710.000000, 101.825, -169.1660
720.000000, 101.821, -168.8065
730.000000, 101.821, -168.4524
740.000000, 101.822, -168.0923
750.000000, 101.825, -167.6777
762.000000, 101.830, -167.1375
775.000000, 101.840, -166.5765
788.000000, 101.852, -166.0928
800.000000, 101.858, -165.5990
812.000000, 101.863, -165.1036
825.000000, 101.876, -164.5712
838.000000, 101.893, -164.0550
850.000000, 101.910, -163.5645
862.000000, 101.928, -163.0670
875.000000, 101.948, -162.5422
885.000000, 101.965, -162.1459
900.000000, 101.998, -161.5633
912.000000, 102.025, -161.0870
925.000000, 102.055, -160.5541
938.000000, 102.088, -160.0414
950.000000, 102.122, -159.6035
962.000000, 102.158, -159.1693
975.000000, 102.195, -158.7023
988.000000, 102.234, -158.2572
1000.000000, 102.270, -157.8468
1015.000000, 102.316, -157.3574
1030.000000, 102.363, -156.9075
1044.000000, 102.406, -156.4882
1060.000000, 102.448, -156.0112
1075.000000, 102.483, -155.5643
1090.000000, 102.519, -155.1145
1106.000000, 102.555, -154.6243
1120.000000, 102.583, -154.1770
1138.000000, 102.615, -153.5532
1150.000000, 102.637, -153.1035
1172.000000, 102.683, -152.2134
1180.000000, 102.704, -151.8638
1206.000000, 102.775, -150.6466
1220.000000, 102.820, -149.9375
1241.000000, 102.912, -148.8264
1250.000000, 102.962, -148.3547
1265.000000, 103.060, -147.5851
1280.000000, 103.169, -146.8351
1315.000000, 103.447, -145.3054
1320.000000, 103.490, -145.1196
1340.000000, 103.672, -144.4705
1360.000000, 103.862, -143.9459
1380.000000, 104.052, -143.5443
1400.000000, 104.239, -143.2654
1430.000000, 104.510, -143.0333
1450.000000, 104.680, -142.9784
1475.000000, 104.880, -143.0125
1500.000000, 105.067, -143.1030
1525.000000, 105.240, -143.2503
1550.000000, 105.400, -143.4163
1575.000000, 105.554, -143.5777
1600.000000, 105.700, -143.7575
1625.000000, 105.842, -143.9780
1650.000000, 105.979, -144.2098
1675.000000, 106.110, -144.4461
1700.000000, 106.236, -144.6920
1725.000000, 106.357, -144.9370
1750.000000, 106.473, -145.1714
1775.000000, 106.584, -145.4242
1800.000000, 106.690, -145.6879
1825.000000, 106.791, -145.9106
1850.000000, 106.898, -146.1133
1875.000000, 107.006, -146.3131
1900.000000, 107.113, -146.5182
1925.000000, 107.220, -146.7390
1950.000000, 107.327, -146.9254
1975.000000, 107.430, -147.0954
2000.000000, 107.535, -147.2567
2030.000000, 107.674, -147.4428
2060.000000, 107.828, -147.6783
2090.000000, 107.991, -148.0298
2120.000000, 108.153, -148.4667
2140.000000, 108.257, -148.7808
2180.000000, 108.462, -149.4920
2200.000000, 108.564, -149.8746
2240.000000, 108.769, -150.7122
2270.000000, 108.919, -151.4353
2300.000000, 109.066, -152.2185
2330.000000, 109.214, -153.0558
2360.000000, 109.358, -153.9823
2400.000000, 109.534, -155.3714
2430.000000, 109.652, -156.5163
2470.000000, 109.799, -158.0573
2500.000000, 109.900, -159.2558
2540.000000, 110.009, -160.9520
2580.000000, 110.092, -162.7105
2620.000000, 110.158, -164.5253
2650.000000, 110.191, -165.8829
2690.000000, 110.212, -167.6272
2720.000000, 110.211, -168.8836
2760.000000, 110.195, -170.5491
2800.000000, 110.169, -172.2271
2850.000000, 110.121, -174.2379
2900.000000, 110.055, -176.0795
2950.000000, 109.959, -177.8642
3000.000000, 109.850, -179.5968
3040.000000, 109.758, 179.0919
3070.000000, 109.685, 178.1544
3110.000000, 109.584, 176.9303
3150.000000, 109.481, 175.7197
3200.000000, 109.345, 174.2585
3250.000000, 109.194, 172.8520
3300.000000, 109.030, 171.5187
3350.000000, 108.849, 170.2640
3400.000000, 108.655, 169.1315
3450.000000, 108.457, 168.1490
3500.000000, 108.269, 167.3078
3550.000000, 108.096, 166.5401
3600.000000, 107.926, 165.7777
3650.000000, 107.755, 164.9927
3700.000000, 107.585, 164.2158
3750.000000, 107.410, 163.4494
3820.000000, 107.129, 162.7579
3870.000000, 106.928, 163.2202
3950.000000, 106.601, 165.6790
4000.000000, 106.358, 167.6670
4060.000000, 106.048, 170.3534
4120.000000, 105.740, 173.3351
4180.000000, 105.439, 176.5099
4250.000000, 105.096, -179.5898
4310.000000, 104.812, -176.1148
4370.000000, 104.530, -172.5005
4440.000000, 104.202, -168.0977
4500.000000, 103.927, -164.1360
4550.000000, 103.703, -160.6888
4620.000000, 103.407, -155.6708
4680.000000, 103.174, -151.2115
4750.000000, 102.928, -145.8989
4820.000000, 102.707, -140.5479
4870.000000, 102.561, -136.7350
4940.000000, 102.365, -131.4074
5000.000000, 102.203, -126.7827
5080.000000, 101.997, -120.5022
5150.000000, 101.833, -114.9583
5220.000000, 101.682, -109.4606
5300.000000, 101.514, -103.2543
5380.000000, 101.334, -97.0404
5450.000000, 101.163, -91.5328
5520.000000, 100.985, -85.9015
5600.000000, 100.784, -79.2921
5700.000000, 100.542, -70.8143
5800.000000, 100.321, -62.1297
5900.000000, 100.119, -53.2734
6000.000000, 99.938, -44.3500
6080.000000, 99.805, -37.2433
6150.000000, 99.687, -31.0276
6220.000000, 99.562, -24.7976
6300.000000, 99.403, -17.6244
6400.000000, 99.173, -8.4843
6500.000000, 98.909, 1.0050
6600.000000, 98.624, 11.0709
6700.000000, 98.326, 21.9968
6800.000000, 98.068, 34.1411
6900.000000, 97.958, 47.5988
7000.000000, 98.114, 61.9389
7100.000000, 98.575, 76.1446
7200.000000, 99.288, 89.2379
7300.000000, 100.145, 100.8309
7400.000000, 101.079, 111.1537
7500.000000, 102.094, 120.5561
7620.000000, 103.494, 130.3022
7750.000000, 105.198, 137.0304
7880.000000, 106.700, 137.8063
8000.000000, 107.390, 134.1244
8120.000000, 107.166, 129.5424
8250.000000, 106.041, 127.3605
8380.000000, 104.400, 130.1183
8500.000000, 102.794, 137.0566
8620.000000, 101.329, 147.1541
8750.000000, 99.987, 160.1425
8850.000000, 99.126, 170.8082
9000.000000, 98.045, -172.8162
9120.000000, 97.301, -159.5624
9250.000000, 96.562, -145.1377
9380.000000, 95.867, -130.5098
9500.000000, 95.257, -116.7063
9620.000000, 94.681, -102.5901
9750.000000, 94.106, -86.9316
9880.000000, 93.595, -70.8613
10000.000000, 93.179, -55.6936
10150.000000, 92.757, -36.4565
10300.000000, 92.448, -17.1534
10440.000000, 92.241, 0.7430
10600.000000, 92.076, 21.0431
10750.000000, 91.989, 39.9808
10900.000000, 91.963, 58.7952
11060.000000, 91.999, 78.6696
11200.000000, 92.078, 95.9446
11380.000000, 92.255, 117.9965
11500.000000, 92.430, 132.5326
11720.000000, 92.876, 158.7279
11800.000000, 93.083, 168.0667
12060.000000, 93.983, -162.7425
12200.000000, 94.647, -148.6135
12410.000000, 95.821, -133.5770
12500.000000, 96.306, -130.8998
12650.000000, 96.896, -131.6287
12800.000000, 96.877, -137.0559
13150.000000, 92.837, -148.2248
13200.000000, 91.785, -148.3621
13400.000000, 86.143, -147.9965
13600.000000, 77.937, -148.2623
13800.000000, 67.947, -148.8589
14000.000000, 57.018, -147.3623
14300.000000, 42.454, -14.2386
14500.000000, 39.710, 35.1223
14750.000000, 39.046, 58.8776
15000.000000, 39.010, 120.4277
15250.000000, 39.316, 103.6302
15500.000000, 39.503, -161.3257
15750.000000, 39.610, -98.4807
16000.000000, 39.935, -97.3176
16250.000000, 40.093, -162.3318
16500.000000, 40.249, 101.6338
16750.000000, 40.358, 70.7145
17000.000000, 41.147, 71.7195
17250.000000, 42.979, 55.4771
17500.000000, 44.158, 46.5715
17750.000000, 43.477, 70.7252
18000.000000, 42.006, 57.9424
18250.000000, 42.605, 100.2253
18500.000000, 44.753, 155.3093
18750.000000, 44.764, 153.5139
19000.000000, 42.146, 134.8817
19250.000000, 38.327, 125.5543
19500.000000, 35.232, 83.5873
19750.000000, 32.937, -34.2661
20000.000000, 31.064, -61.2597
