* Measurement data measured by REW V5.31.3
* Source: USB-C to 3.5mm Headphone Jack Adapter, USB-C to 3.5mm Headphone Jack Adapter, 0, volume: 0.264
* Format: 256k Log Swept Sine, 1 sweep at -12.0 dBFS with no timing reference
* Dated: Feb 24, 2025 12:40:48 AM
* REW Settings:
*  C-weighting compensation: Off
*  Target level: 75.0 dB
* Note: ; 
* Measurement: Nightjar Singularity R
* Smoothing: 1/24 octave
* Frequency Step: 1/48 octave
* Start Frequency: 1.000 Hz
*
* Freq(Hz), SPL(dB), Phase(degrees)
1.000000, 65.962, -43.9566
1.015000, 66.064, -44.6266
1.030000, 66.165, -45.2942
1.044000, 66.259, -45.9154
1.060000, 66.365, -46.6235
1.075000, 66.464, -47.2860
1.090000, 66.561, -47.9479
1.106000, 66.665, -48.6537
1.120000, 66.755, -49.2718
1.138000, 66.871, -50.0669
1.150000, 66.949, -50.5968
1.172000, 67.090, -51.5672
1.180000, 67.142, -51.9195
1.206000, 67.308, -53.0615
1.220000, 67.398, -53.6741
1.241000, 67.532, -54.5894
1.250000, 67.589, -54.9802
1.265000, 67.684, -55.6294
1.280000, 67.778, -56.2758
1.315000, 67.997, -57.7727
1.320000, 68.028, -57.9852
1.340000, 68.151, -58.8317
1.360000, 68.273, -59.6727
1.380000, 68.394, -60.5082
1.400000, 68.514, -61.3383
1.430000, 68.690, -62.5740
1.450000, 68.806, -63.3919
1.475000, 68.948, -64.4099
1.500000, 69.089, -65.4274
1.525000, 69.228, -66.4449
1.550000, 69.365, -67.4609
1.575000, 69.501, -68.4739
1.600000, 69.635, -69.4824
1.625000, 69.767, -70.4854
1.650000, 69.897, -71.4821
1.675000, 70.025, -72.4718
1.700000, 70.152, -73.4542
1.725000, 70.276, -74.4290
1.750000, 70.398, -75.3961
1.775000, 70.518, -76.3558
1.800000, 70.636, -77.3084
1.825000, 70.752, -78.2555
1.850000, 70.865, -79.2024
1.875000, 70.977, -80.1551
1.900000, 71.086, -81.1134
1.925000, 71.193, -82.0749
1.950000, 71.298, -83.0371
1.975000, 71.401, -83.9974
2.000000, 71.503, -84.9536
2.030000, 71.621, -86.0927
2.060000, 71.737, -87.2198
2.090000, 71.850, -88.3319
2.120000, 71.960, -89.4265
2.140000, 72.032, -90.1455
2.180000, 72.173, -91.5566
2.200000, 72.241, -92.2508
2.240000, 72.374, -93.6337
2.270000, 72.470, -94.6731
2.300000, 72.563, -95.7125
2.330000, 72.653, -96.7487
2.360000, 72.740, -97.7785
2.400000, 72.852, -99.1358
2.430000, 72.934, -100.1383
2.470000, 73.038, -101.4487
2.500000, 73.114, -102.4085
2.540000, 73.212, -103.6541
2.580000, 73.305, -104.8654
2.620000, 73.394, -106.0618
2.650000, 73.458, -106.9542
2.690000, 73.538, -108.1354
2.720000, 73.596, -109.0119
2.760000, 73.670, -110.1638
2.800000, 73.740, -111.2918
2.850000, 73.823, -112.6600
2.900000, 73.901, -113.9729
2.950000, 73.976, -115.2309
3.000000, 74.044, -116.4542
3.040000, 74.095, -117.4142
3.070000, 74.131, -118.1224
3.110000, 74.176, -119.0489
3.150000, 74.219, -119.9525
3.200000, 74.270, -121.0449
3.250000, 74.318, -122.0899
3.300000, 74.365, -123.0833
3.350000, 74.409, -124.0300
3.400000, 74.450, -124.9378
3.450000, 74.487, -125.8098
3.500000, 74.523, -126.6472
3.550000, 74.557, -127.4504
3.600000, 74.591, -128.2192
3.650000, 74.626, -128.9527
3.700000, 74.660, -129.6491
3.750000, 74.694, -130.3080
3.820000, 74.740, -131.1742
3.870000, 74.773, -131.7583
3.950000, 74.826, -132.6441
4.000000, 74.861, -133.1720
4.060000, 74.905, -133.7785
4.120000, 74.950, -134.3492
4.180000, 74.996, -134.8865
4.250000, 75.052, -135.4816
4.310000, 75.101, -135.9739
4.370000, 75.151, -136.4573
4.440000, 75.210, -137.0109
4.500000, 75.263, -137.4708
4.550000, 75.308, -137.8438
4.620000, 75.371, -138.3546
4.680000, 75.425, -138.7860
4.750000, 75.487, -139.2868
4.820000, 75.549, -139.7861
4.870000, 75.593, -140.1405
4.940000, 75.654, -140.6321
5.000000, 75.706, -141.0486
5.080000, 75.772, -141.5964
5.150000, 75.828, -142.0694
5.220000, 75.882, -142.5382
5.300000, 75.941, -143.0680
5.380000, 75.998, -143.5879
5.450000, 76.045, -144.0315
5.520000, 76.091, -144.4632
5.600000, 76.141, -144.9438
5.700000, 76.200, -145.5273
5.800000, 76.257, -146.0918
5.900000, 76.313, -146.6355
6.000000, 76.367, -147.1576
6.080000, 76.409, -147.5641
6.150000, 76.445, -147.9157
6.220000, 76.480, -148.2658
6.300000, 76.521, -148.6637
6.400000, 76.572, -149.1566
6.500000, 76.621, -149.6511
6.600000, 76.668, -150.1555
6.700000, 76.712, -150.6723
6.800000, 76.755, -151.1986
6.900000, 76.793, -151.7325
7.000000, 76.827, -152.2755
7.100000, 76.855, -152.8302
7.200000, 76.878, -153.3885
7.300000, 76.895, -153.9386
7.400000, 76.906, -154.4781
7.500000, 76.910, -155.0089
7.620000, 76.908, -155.6191
7.750000, 76.898, -156.2266
7.880000, 76.882, -156.7788
8.000000, 76.864, -157.2371
8.120000, 76.846, -157.6375
8.250000, 76.828, -158.0069
8.380000, 76.815, -158.3298
8.500000, 76.811, -158.5968
8.620000, 76.814, -158.8370
8.750000, 76.826, -159.0986
8.850000, 76.842, -159.3170
9.000000, 76.876, -159.6754
9.120000, 76.910, -160.0086
9.250000, 76.950, -160.4352
9.380000, 76.992, -160.9269
9.500000, 77.030, -161.4363
9.620000, 77.064, -162.0014
9.750000, 77.096, -162.6683
9.880000, 77.121, -163.3707
10.000000, 77.136, -164.0424
10.150000, 77.145, -164.9019
10.300000, 77.143, -165.7491
10.440000, 77.133, -166.5187
10.600000, 77.114, -167.3591
10.750000, 77.092, -168.0934
10.900000, 77.068, -168.7789
11.060000, 77.045, -169.4603
11.200000, 77.027, -170.0176
11.380000, 77.009, -170.7017
11.500000, 77.001, -171.1446
11.720000, 76.991, -171.9436
11.800000, 76.989, -172.2346
12.060000, 76.982, -173.1796
12.200000, 76.977, -173.6843
12.410000, 76.967, -174.4230
12.500000, 76.962, -174.7264
12.650000, 76.951, -175.2108
12.800000, 76.940, -175.6627
13.150000, 76.918, -176.5726
13.200000, 76.916, -176.6879
13.400000, 76.914, -177.1183
13.600000, 76.920, -177.5222
13.800000, 76.935, -177.9218
14.000000, 76.956, -178.3414
14.300000, 76.992, -179.0337
14.500000, 77.012, -179.5398
14.750000, 77.029, 179.7991
15.000000, 77.033, 179.1377
15.250000, 77.025, 178.5155
15.500000, 77.010, 177.9567
15.750000, 76.993, 177.4658
16.000000, 76.980, 177.0255
16.250000, 76.973, 176.5990
16.500000, 76.972, 176.1486
16.750000, 76.972, 175.6434
17.000000, 76.966, 175.0757
17.250000, 76.950, 174.4626
17.500000, 76.919, 173.8410
17.750000, 76.873, 173.2607
18.000000, 76.818, 172.7628
18.250000, 76.761, 172.3704
18.500000, 76.713, 172.0733
18.750000, 76.681, 171.8280
19.000000, 76.669, 171.5721
19.250000, 76.672, 171.2379
19.500000, 76.682, 170.7853
19.750000, 76.688, 170.2097
20.000000, 76.679, 169.5467
20.299999, 76.642, 168.7294
20.600000, 76.579, 168.0060
20.900000, 76.505, 167.4650
21.200001, 76.441, 167.1156
21.400000, 76.413, 166.9519
21.799999, 76.398, 166.6243
22.000000, 76.405, 166.3883
22.400000, 76.423, 165.7005
22.700001, 76.418, 165.0414
23.000000, 76.388, 164.3632
23.299999, 76.335, 163.7682
23.600000, 76.273, 163.3176
24.000000, 76.202, 162.9271
24.299999, 76.167, 162.7119
24.700001, 76.144, 162.3929
25.000000, 76.133, 162.0821
25.400000, 76.113, 161.5853
25.799999, 76.083, 161.0546
26.200001, 76.046, 160.5348
26.500000, 76.017, 160.1549
26.900000, 75.976, 159.6576
27.200001, 75.942, 159.2986
27.600000, 75.896, 158.8585
28.000000, 75.854, 158.4622
28.500000, 75.814, 157.9603
29.000000, 75.779, 157.3604
29.500000, 75.724, 156.6940
30.000000, 75.643, 156.1199
30.400000, 75.574, 155.8049
30.700001, 75.529, 155.6446
31.100000, 75.483, 155.4790
31.500000, 75.452, 155.3093
32.000000, 75.428, 155.0203
32.500000, 75.412, 154.5975
33.000000, 75.390, 154.0098
33.500000, 75.341, 153.3140
34.000000, 75.258, 152.6877
34.500000, 75.164, 152.2900
35.000000, 75.097, 152.0684
35.500000, 75.066, 151.7876
36.000000, 75.041, 151.2980
36.500000, 74.989, 150.7038
37.000000, 74.912, 150.2193
37.500000, 74.839, 149.9234
38.200001, 74.775, 149.5888
38.700001, 74.740, 149.2414
39.500000, 74.659, 148.5893
40.000000, 74.597, 148.2242
40.599998, 74.523, 147.8180
41.200001, 74.444, 147.4119
41.799999, 74.357, 147.0393
42.500000, 74.258, 146.6912
43.099998, 74.187, 146.4269
43.700001, 74.129, 146.1245
44.400002, 74.068, 145.6749
45.000000, 74.009, 145.2433
45.500000, 73.953, 144.9174
46.200001, 73.879, 144.5844
46.799999, 73.832, 144.3553
47.500000, 73.792, 143.9922
48.200001, 73.735, 143.5203
48.700001, 73.676, 143.2179
49.400002, 73.586, 142.9269
50.000000, 73.515, 142.7531
50.799999, 73.426, 142.5420
51.500000, 73.357, 142.3708
52.200001, 73.305, 142.1219
53.000000, 73.244, 141.6356
53.799999, 73.156, 141.1038
54.500000, 73.072, 140.7572
55.200001, 72.996, 140.5014
56.000000, 72.919, 140.2820
57.000000, 72.844, 140.0859
58.000000, 72.786, 139.7985
59.000000, 72.709, 139.3726
60.000000, 72.601, 138.9864
60.799999, 72.507, 138.7647
61.500000, 72.428, 138.5959
62.200001, 72.355, 138.4187
63.000000, 72.277, 138.1806
64.000000, 72.182, 137.8087
65.000000, 72.082, 137.4579
66.000000, 71.992, 137.1851
67.000000, 71.908, 136.9251
68.000000, 71.822, 136.7786
69.000000, 71.757, 136.7003
70.000000, 71.697, 136.4885
71.000000, 71.620, 136.2292
72.000000, 71.533, 135.9636
73.000000, 71.432, 135.7566
74.000000, 71.346, 135.6474
75.000000, 71.273, 135.3894
76.199997, 71.163, 135.0989
77.500000, 71.067, 134.8604
78.800003, 70.960, 134.5677
80.000000, 70.872, 134.4113
81.199997, 70.779, 134.1797
82.500000, 70.673, 134.0617
83.800003, 70.570, 133.9075
85.000000, 70.466, 133.8738
86.199997, 70.387, 133.9180
87.500000, 70.320, 133.7645
88.500000, 70.255, 133.5562
90.000000, 70.148, 133.2975
91.199997, 70.058, 133.1060
92.500000, 69.958, 133.0112
93.800003, 69.880, 132.9775
95.000000, 69.816, 132.8035
96.199997, 69.736, 132.5980
97.500000, 69.646, 132.4243
98.800003, 69.546, 132.2284
100.000000, 69.442, 132.1609
101.500000, 69.325, 132.2029
103.000000, 69.226, 132.2270
104.400002, 69.150, 132.1631
106.000000, 69.053, 131.8774
107.500000, 68.928, 131.7747
109.000000, 68.836, 131.9910
110.599998, 68.777, 131.9435
112.000000, 68.706, 131.6521
113.800003, 68.572, 131.3740
115.000000, 68.498, 131.4351
117.199997, 68.413, 131.3441
118.000000, 68.370, 131.3239
120.599998, 68.209, 131.3147
122.000000, 68.102, 131.3659
124.099998, 67.945, 131.5345
125.000000, 67.893, 131.6342
126.500000, 67.829, 131.7007
128.000000, 67.763, 131.6986
131.500000, 67.685, 131.8093
132.000000, 67.664, 131.7167
134.000000, 67.535, 131.5666
136.000000, 67.399, 131.8314
138.000000, 67.279, 131.8817
140.000000, 67.147, 131.8099
143.000000, 66.946, 131.6066
145.000000, 66.820, 131.9792
147.500000, 66.781, 132.3973
150.000000, 66.705, 131.7086
152.500000, 66.529, 131.6025
155.000000, 66.418, 131.8978
157.500000, 66.295, 131.6993
160.000000, 66.133, 131.8749
162.500000, 66.014, 132.3175
165.000000, 65.917, 132.7635
167.500000, 65.835, 133.1445
170.000000, 65.812, 133.4158
172.500000, 65.769, 133.4445
175.000000, 65.665, 133.7116
177.500000, 65.588, 134.1599
180.000000, 65.542, 134.3819
182.500000, 65.491, 134.6818
185.000000, 65.452, 134.8940
187.500000, 65.418, 134.8511
190.000000, 65.395, 134.9556
192.500000, 65.340, 135.2081
195.000000, 65.240, 135.5442
197.500000, 65.142, 135.6005
200.000000, 65.061, 135.3423
203.000000, 64.955, 135.0938
206.000000, 64.872, 135.1807
209.000000, 64.813, 135.2983
212.000000, 64.740, 135.6502
214.000000, 64.673, 135.7923
218.000000, 64.558, 135.6455
220.000000, 64.513, 135.4700
224.000000, 64.358, 135.4906
227.000000, 64.223, 135.8122
230.000000, 64.115, 136.2961
233.000000, 64.050, 136.6749
236.000000, 63.980, 136.6302
240.000000, 63.858, 136.6976
243.000000, 63.794, 136.9969
247.000000, 63.747, 137.4418
250.000000, 63.685, 137.8817
254.000000, 63.568, 137.9916
258.000000, 63.487, 137.6733
262.000000, 63.412, 137.7952
265.000000, 63.294, 138.2623
269.000000, 63.130, 138.6938
272.000000, 63.070, 138.6456
276.000000, 63.028, 138.7442
280.000000, 62.947, 139.2689
285.000000, 62.865, 139.9310
290.000000, 62.770, 140.0784
295.000000, 62.645, 140.8006
300.000000, 62.548, 141.4879
304.000000, 62.471, 141.6965
307.000000, 62.420, 141.8643
311.000000, 62.372, 142.0302
315.000000, 62.329, 142.2069
320.000000, 62.250, 142.3976
325.000000, 62.169, 142.7361
330.000000, 62.087, 142.8290
335.000000, 62.006, 143.1158
340.000000, 61.935, 143.6960
345.000000, 61.879, 144.1327
350.000000, 61.800, 144.4908
355.000000, 61.683, 144.8557
360.000000, 61.592, 145.0017
365.000000, 61.567, 145.3066
370.000000, 61.514, 145.7693
375.000000, 61.403, 146.0209
382.000000, 61.291, 146.4008
387.000000, 61.231, 146.6415
395.000000, 61.084, 147.0782
400.000000, 61.006, 147.5361
406.000000, 60.929, 147.9961
412.000000, 60.844, 148.5232
418.000000, 60.809, 148.8450
425.000000, 60.742, 149.1968
431.000000, 60.622, 149.6072
437.000000, 60.557, 149.8293
444.000000, 60.509, 150.2366
450.000000, 60.454, 151.0745
455.000000, 60.360, 151.6818
462.000000, 60.274, 152.2078
468.000000, 60.229, 152.5556
475.000000, 60.138, 153.3772
482.000000, 60.050, 154.1706
487.000000, 60.007, 154.6159
494.000000, 59.963, 155.2130
500.000000, 59.921, 155.8330
508.000000, 59.882, 156.4647
515.000000, 59.777, 156.8190
522.000000, 59.755, 156.8457
530.000000, 59.767, 157.0004
538.000000, 59.717, 157.8136
545.000000, 59.645, 158.6086
552.000000, 59.571, 159.7577
560.000000, 59.510, 161.2091
570.000000, 59.459, 161.5782
580.000000, 59.383, 162.0409
590.000000, 59.320, 162.3046
600.000000, 59.247, 162.9564
608.000000, 59.225, 163.9129
615.000000, 59.198, 164.4312
622.000000, 59.145, 164.8202
630.000000, 59.104, 165.2867
640.000000, 59.086, 166.1859
650.000000, 59.059, 166.8981
660.000000, 59.009, 167.6282
670.000000, 58.986, 168.4739
680.000000, 58.984, 168.9826
690.000000, 58.943, 169.3531
700.000000, 58.877, 170.2865
710.000000, 58.828, 171.2924
720.000000, 58.803, 172.1194
730.000000, 58.789, 173.0741
740.000000, 58.755, 173.8771
750.000000, 58.727, 174.5063
762.000000, 58.713, 175.4137
775.000000, 58.676, 176.5634
788.000000, 58.658, 177.6257
800.000000, 58.638, 178.6151
812.000000, 58.626, 179.4105
825.000000, 58.667, -179.5309
838.000000, 58.681, -177.9906
850.000000, 58.659, -177.1046
862.000000, 58.669, -176.1381
875.000000, 58.703, -174.9610
885.000000, 58.734, -174.1158
900.000000, 58.772, -172.9491
912.000000, 58.809, -171.9723
925.000000, 58.860, -170.8280
938.000000, 58.921, -169.7353
950.000000, 58.992, -168.7877
962.000000, 59.065, -167.8290
975.000000, 59.152, -166.7440
988.000000, 59.256, -165.7450
1000.000000, 59.355, -164.8671
1015.000000, 59.477, -163.8538
1030.000000, 59.618, -162.9343
1044.000000, 59.764, -162.1204
1060.000000, 59.941, -161.2414
1075.000000, 60.114, -160.6066
1090.000000, 60.278, -160.0915
1106.000000, 60.446, -159.5721
1120.000000, 60.598, -159.2380
1138.000000, 60.788, -159.0070
1150.000000, 60.907, -158.9204
1172.000000, 61.112, -158.8241
1180.000000, 61.182, -158.8125
1206.000000, 61.386, -158.9067
1220.000000, 61.483, -159.0178
1241.000000, 61.617, -159.1746
1250.000000, 61.670, -159.2353
1265.000000, 61.752, -159.3370
1280.000000, 61.824, -159.4606
1315.000000, 61.981, -159.6631
1320.000000, 62.001, -159.6800
1340.000000, 62.077, -159.7444
1360.000000, 62.146, -159.8082
1380.000000, 62.209, -159.8730
1400.000000, 62.273, -159.9333
1430.000000, 62.363, -159.9686
1450.000000, 62.419, -159.9282
1475.000000, 62.485, -159.8597
1500.000000, 62.548, -159.7987
1525.000000, 62.613, -159.7300
1550.000000, 62.676, -159.6432
1575.000000, 62.737, -159.5528
1600.000000, 62.801, -159.4564
1625.000000, 62.866, -159.3457
1650.000000, 62.929, -159.2266
1675.000000, 62.993, -159.0951
1700.000000, 63.059, -158.9630
1725.000000, 63.125, -158.8404
1750.000000, 63.193, -158.7301
1775.000000, 63.262, -158.6192
1800.000000, 63.330, -158.5138
1825.000000, 63.399, -158.4156
1850.000000, 63.468, -158.3202
1875.000000, 63.540, -158.2311
1900.000000, 63.613, -158.1495
1925.000000, 63.685, -158.0791
1950.000000, 63.757, -158.0245
1975.000000, 63.831, -157.9841
2000.000000, 63.906, -157.9524
2030.000000, 63.997, -157.9286
2060.000000, 64.088, -157.9269
2090.000000, 64.178, -157.9487
2120.000000, 64.268, -157.9865
2140.000000, 64.328, -158.0213
2180.000000, 64.449, -158.1269
2200.000000, 64.509, -158.1962
2240.000000, 64.628, -158.3591
2270.000000, 64.716, -158.5039
2300.000000, 64.803, -158.6700
2330.000000, 64.889, -158.8615
2360.000000, 64.973, -159.0764
2400.000000, 65.083, -159.3979
2430.000000, 65.163, -159.6645
2470.000000, 65.268, -160.0551
2500.000000, 65.345, -160.3685
2540.000000, 65.442, -160.8147
2580.000000, 65.535, -161.2946
2620.000000, 65.622, -161.8119
2650.000000, 65.685, -162.2222
2690.000000, 65.764, -162.7922
2720.000000, 65.820, -163.2356
2760.000000, 65.889, -163.8483
2800.000000, 65.953, -164.4791
2850.000000, 66.022, -165.2940
2900.000000, 66.083, -166.1452
2950.000000, 66.134, -167.0183
3000.000000, 66.174, -167.9107
3040.000000, 66.199, -168.6347
3070.000000, 66.213, -169.1819
3110.000000, 66.225, -169.9148
3150.000000, 66.231, -170.6495
3200.000000, 66.229, -171.5654
3250.000000, 66.217, -172.4715
3300.000000, 66.195, -173.3648
3350.000000, 66.164, -174.2446
3400.000000, 66.122, -175.1055
3450.000000, 66.071, -175.9427
3500.000000, 66.011, -176.7528
3550.000000, 65.942, -177.5353
3600.000000, 65.865, -178.2953
3650.000000, 65.781, -179.0286
3700.000000, 65.689, -179.7262
3750.000000, 65.589, 179.6136
3820.000000, 65.434, 178.7497
3870.000000, 65.310, 178.1887
3950.000000, 65.084, 177.4946
4000.000000, 64.941, 177.2978
4060.000000, 64.802, 177.1984
4120.000000, 64.685, 176.9582
4180.000000, 64.555, 176.6241
4250.000000, 64.386, 176.3118
4310.000000, 64.238, 176.1197
4370.000000, 64.090, 175.9699
4440.000000, 63.915, 175.8409
4500.000000, 63.761, 175.7687
4550.000000, 63.630, 175.7361
4620.000000, 63.442, 175.7344
4680.000000, 63.278, 175.7845
4750.000000, 63.083, 175.9105
4820.000000, 62.886, 176.1074
4870.000000, 62.742, 176.2957
4940.000000, 62.537, 176.6328
5000.000000, 62.358, 177.0033
5080.000000, 62.116, 177.6542
5150.000000, 61.909, 178.3895
5220.000000, 61.711, 179.2668
5300.000000, 61.504, -179.6098
5380.000000, 61.319, -178.3967
5450.000000, 61.175, -177.2910
5520.000000, 61.042, -176.1603
5600.000000, 60.905, -174.8397
5700.000000, 60.755, -173.1491
5800.000000, 60.629, -171.4059
5900.000000, 60.527, -169.6203
6000.000000, 60.451, -167.7953
6080.000000, 60.408, -166.3239
6150.000000, 60.386, -165.0327
6220.000000, 60.377, -163.7292
6300.000000, 60.384, -162.2520
6400.000000, 60.422, -160.4274
6500.000000, 60.493, -158.6499
6600.000000, 60.596, -156.9549
6700.000000, 60.733, -155.3618
6800.000000, 60.905, -153.8974
6900.000000, 61.112, -152.5887
7000.000000, 61.353, -151.4489
7100.000000, 61.634, -150.4996
7200.000000, 61.959, -149.8037
7300.000000, 62.336, -149.4655
7400.000000, 62.762, -149.6277
7500.000000, 63.226, -150.4379
7620.000000, 63.805, -152.4749
7750.000000, 64.398, -156.2341
7880.000000, 64.858, -161.6972
8000.000000, 65.065, -168.0092
8120.000000, 64.984, -174.9615
8250.000000, 64.552, 177.6941
8380.000000, 63.818, 171.3948
8500.000000, 62.962, 166.9353
8620.000000, 62.020, 163.8435
8750.000000, 60.974, 161.8741
8850.000000, 60.180, 161.1888
9000.000000, 59.038, 161.2800
9120.000000, 58.178, 162.1470
9250.000000, 57.307, 163.7209
9380.000000, 56.505, 165.8348
9500.000000, 55.826, 168.1728
9620.000000, 55.206, 170.8029
9750.000000, 54.599, 173.9220
9880.000000, 54.056, 177.2859
10000.000000, 53.607, -179.3966
10150.000000, 53.120, -174.8869
10300.000000, 52.748, -169.9256
10440.000000, 52.540, -165.1150
10600.000000, 52.463, -159.7804
10750.000000, 52.531, -155.0616
10900.000000, 52.732, -150.7719
11060.000000, 53.079, -146.9510
11200.000000, 53.462, -144.4204
11380.000000, 54.009, -142.3378
11500.000000, 54.381, -141.6082
11720.000000, 55.051, -141.3649
11800.000000, 55.292, -141.5735
12060.000000, 56.090, -143.3864
12200.000000, 56.515, -145.2131
12410.000000, 57.112, -149.1323
12500.000000, 57.343, -151.2769
12650.000000, 57.673, -155.4789
12800.000000, 57.906, -160.3897
13150.000000, 57.928, -173.4394
13200.000000, 57.868, -175.3414
13400.000000, 57.487, 177.3241
13600.000000, 56.933, 170.7419
13800.000000, 56.288, 165.0793
14000.000000, 55.624, 160.2697
14300.000000, 54.701, 154.1889
14500.000000, 54.176, 150.4784
14750.000000, 53.633, 145.6931
15000.000000, 53.198, 140.3366
15250.000000, 52.830, 134.0711
15500.000000, 52.480, 126.7035
15750.000000, 52.086, 118.2287
16000.000000, 51.599, 108.7775
16250.000000, 50.989, 98.6055
16500.000000, 50.247, 88.0161
16750.000000, 49.390, 77.1969
17000.000000, 48.451, 66.2027
17250.000000, 47.465, 54.9356
17500.000000, 46.453, 43.1251
17750.000000, 45.431, 30.4417
18000.000000, 44.394, 16.4111
18250.000000, 43.329, 0.4954
18500.000000, 42.221, -18.0231
18750.000000, 41.012, -39.9088
19000.000000, 39.588, -65.9405
19250.000000, 37.791, -96.6358
19500.000000, 35.441, -132.1412
19750.000000, 32.490, -172.4838
20000.000000, 29.879, 148.7623
