* Measurement data measured by REW V5.31.3
* Source: USB-C to 3.5mm Headphone Jack Adapter, USB-C to 3.5mm Headphone Jack Adapter, 0, volume: 0.264
* Format: 256k Log Swept Sine, 1 sweep at -12.0 dBFS with no timing reference
* Dated: Feb 24, 2025 12:29:39 AM
* REW Settings:
*  C-weighting compensation: Off
*  Target level: 75.0 dB
* Note: ; 
* Measurement: Softears Twilight L
* Smoothing: 1/24 octave
* Frequency Step: 1/48 octave
* Start Frequency: 1.000 Hz
*
* Freq(Hz), SPL(dB), Phase(degrees)
1.000000, 40.143, 0.3357
1.015000, 40.284, -0.9047
1.030000, 40.422, -2.1192
1.044000, 40.549, -3.2312
1.060000, 40.692, -4.4793
1.075000, 40.824, -5.6300
1.090000, 40.954, -6.7663
1.106000, 41.089, -7.9761
1.120000, 41.205, -9.0517
1.138000, 41.351, -10.4675
1.150000, 41.446, -11.4298
1.172000, 41.615, -13.2241
1.180000, 41.675, -13.8841
1.206000, 41.865, -16.0464
1.220000, 41.964, -17.2163
1.241000, 42.107, -18.9699
1.250000, 42.168, -19.7189
1.265000, 42.266, -20.9608
1.280000, 42.361, -22.1920
1.315000, 42.574, -25.0054
1.320000, 42.603, -25.3990
1.340000, 42.718, -26.9486
1.360000, 42.828, -28.4543
1.380000, 42.934, -29.9111
1.400000, 43.036, -31.3143
1.430000, 43.182, -33.3103
1.450000, 43.274, -34.5656
1.475000, 43.384, -36.0695
1.500000, 43.487, -37.5602
1.525000, 43.584, -39.0633
1.550000, 43.673, -40.5753
1.575000, 43.756, -42.0884
1.600000, 43.832, -43.5949
1.625000, 43.902, -45.0867
1.650000, 43.965, -46.5559
1.675000, 44.022, -47.9945
1.700000, 44.072, -49.3943
1.725000, 44.117, -50.7475
1.750000, 44.154, -52.0463
1.775000, 44.186, -53.2828
1.800000, 44.212, -54.4501
1.825000, 44.231, -55.5475
1.850000, 44.243, -56.5988
1.875000, 44.248, -57.6406
1.900000, 44.245, -58.6833
1.925000, 44.234, -59.7238
1.950000, 44.216, -60.7563
1.975000, 44.192, -61.7740
2.000000, 44.163, -62.7693
2.030000, 44.120, -63.9223
2.060000, 44.071, -65.0149
2.090000, 44.016, -66.0296
2.120000, 43.956, -66.9472
2.140000, 43.914, -67.4952
2.180000, 43.825, -68.4126
2.200000, 43.776, -68.7778
2.240000, 43.660, -69.3536
2.270000, 43.554, -69.6725
2.300000, 43.435, -69.8973
2.330000, 43.308, -70.0249
2.360000, 43.178, -70.0507
2.400000, 43.006, -69.9175
2.430000, 42.885, -69.6845
2.470000, 42.743, -69.1863
2.500000, 42.657, -68.6666
2.540000, 42.578, -67.7722
2.580000, 42.541, -66.6236
2.620000, 42.531, -65.1697
2.650000, 42.538, -63.8827
2.690000, 42.567, -61.9510
2.720000, 42.604, -60.3813
2.760000, 42.678, -58.1956
2.800000, 42.782, -55.9874
2.850000, 42.958, -53.3377
2.900000, 43.192, -50.9602
2.950000, 43.494, -48.9007
3.000000, 43.880, -47.0196
3.040000, 44.243, -45.6344
3.070000, 44.539, -44.6928
3.110000, 44.956, -43.5973
3.150000, 45.388, -42.7085
3.200000, 45.931, -41.9143
3.250000, 46.455, -41.4864
3.300000, 46.948, -41.4116
3.350000, 47.424, -41.6096
3.400000, 47.896, -41.9979
3.450000, 48.365, -42.5417
3.500000, 48.824, -43.2213
3.550000, 49.268, -44.0236
3.600000, 49.692, -44.9409
3.650000, 50.090, -45.9734
3.700000, 50.463, -47.1295
3.750000, 50.814, -48.4032
3.820000, 51.272, -50.3205
3.870000, 51.577, -51.7388
3.950000, 52.029, -54.0232
4.000000, 52.290, -55.4403
4.060000, 52.581, -57.1532
4.120000, 52.846, -58.9333
4.180000, 53.085, -60.7655
4.250000, 53.336, -62.9026
4.310000, 53.529, -64.6805
4.370000, 53.704, -66.3758
4.440000, 53.886, -68.2766
4.500000, 54.019, -69.9006
4.550000, 54.114, -71.2484
4.620000, 54.229, -73.0866
4.680000, 54.314, -74.5758
4.750000, 54.398, -76.1709
4.820000, 54.466, -77.6268
4.870000, 54.502, -78.6109
4.940000, 54.539, -79.9142
5.000000, 54.562, -80.9479
5.080000, 54.589, -82.1741
5.150000, 54.612, -83.0788
5.220000, 54.630, -83.8275
5.300000, 54.646, -84.5208
5.380000, 54.664, -85.0723
5.450000, 54.692, -85.4577
5.520000, 54.734, -85.7505
5.600000, 54.797, -85.9480
5.700000, 54.895, -86.0388
5.800000, 55.020, -86.0830
5.900000, 55.175, -86.1654
6.000000, 55.364, -86.2514
6.080000, 55.533, -86.3469
6.150000, 55.687, -86.4923
6.220000, 55.845, -86.7219
6.300000, 56.030, -87.0852
6.400000, 56.270, -87.6579
6.500000, 56.510, -88.3504
6.600000, 56.736, -89.1690
6.700000, 56.947, -90.1237
6.800000, 57.146, -91.1819
6.900000, 57.326, -92.2853
7.000000, 57.485, -93.4093
7.100000, 57.621, -94.5713
7.200000, 57.738, -95.7385
7.300000, 57.837, -96.8505
7.400000, 57.918, -97.8896
7.500000, 57.982, -98.8718
7.620000, 58.044, -99.9459
7.750000, 58.102, -100.9256
7.880000, 58.150, -101.7198
8.000000, 58.197, -102.3164
8.120000, 58.255, -102.7862
8.250000, 58.331, -103.1582
8.380000, 58.424, -103.4642
8.500000, 58.530, -103.7358
8.620000, 58.653, -104.0029
8.750000, 58.801, -104.3483
8.850000, 58.923, -104.6879
9.000000, 59.115, -105.3114
9.120000, 59.269, -105.9162
9.250000, 59.429, -106.6932
9.380000, 59.579, -107.5798
9.500000, 59.704, -108.4620
9.620000, 59.813, -109.3954
9.750000, 59.912, -110.4488
9.880000, 59.991, -111.4933
10.000000, 60.045, -112.4289
10.150000, 60.090, -113.5450
10.300000, 60.116, -114.5433
10.440000, 60.125, -115.3521
10.600000, 60.127, -116.1228
10.750000, 60.127, -116.6792
10.900000, 60.130, -117.0919
11.060000, 60.147, -117.4056
11.200000, 60.174, -117.5890
11.380000, 60.229, -117.7684
11.500000, 60.280, -117.8773
11.720000, 60.393, -118.1101
11.800000, 60.440, -118.2217
12.060000, 60.602, -118.6971
12.200000, 60.690, -119.0308
12.410000, 60.817, -119.6150
12.500000, 60.868, -119.8863
12.650000, 60.947, -120.3589
12.800000, 61.020, -120.8402
13.150000, 61.171, -121.9330
13.200000, 61.192, -122.0825
13.400000, 61.272, -122.6631
13.600000, 61.353, -123.2291
13.800000, 61.435, -123.7966
14.000000, 61.519, -124.3888
14.300000, 61.640, -125.3464
14.500000, 61.712, -126.0310
14.750000, 61.787, -126.9066
15.000000, 61.844, -127.7598
15.250000, 61.886, -128.5358
15.500000, 61.922, -129.2063
15.750000, 61.962, -129.7763
16.000000, 62.014, -130.2864
16.250000, 62.080, -130.8036
16.500000, 62.154, -131.3847
16.750000, 62.229, -132.0644
17.000000, 62.292, -132.8300
17.250000, 62.334, -133.6326
17.500000, 62.354, -134.4006
17.750000, 62.356, -135.0602
18.000000, 62.350, -135.5664
18.250000, 62.349, -135.9097
18.500000, 62.364, -136.1268
18.750000, 62.401, -136.2846
19.000000, 62.461, -136.4583
19.250000, 62.538, -136.7129
19.500000, 62.622, -137.0809
19.750000, 62.705, -137.5679
20.000000, 62.780, -138.1575
20.299999, 62.852, -138.9625
20.600000, 62.902, -139.8275
20.900000, 62.927, -140.7048
21.200001, 62.926, -141.5415
21.400000, 62.911, -142.0455
21.799999, 62.856, -142.8362
22.000000, 62.823, -143.0918
22.400000, 62.772, -143.3160
22.700001, 62.769, -143.3181
23.000000, 62.805, -143.3263
23.299999, 62.874, -143.4904
23.600000, 62.957, -143.9106
24.000000, 63.045, -144.8707
24.299999, 63.070, -145.7671
24.700001, 63.039, -146.9093
25.000000, 62.983, -147.5473
25.400000, 62.909, -147.9900
25.799999, 62.887, -148.0946
26.200001, 62.937, -148.1981
26.500000, 63.007, -148.4679
26.900000, 63.100, -149.1623
27.200001, 63.145, -149.8522
27.600000, 63.156, -150.7559
28.000000, 63.130, -151.3822
28.500000, 63.111, -151.6324
29.000000, 63.173, -151.6002
29.500000, 63.301, -151.8168
30.000000, 63.422, -152.4885
30.400000, 63.470, -153.1937
30.700001, 63.473, -153.6738
31.100000, 63.448, -154.1044
31.500000, 63.417, -154.2399
32.000000, 63.414, -154.1351
32.500000, 63.462, -154.0575
33.000000, 63.530, -154.2615
33.500000, 63.578, -154.7179
34.000000, 63.598, -155.2510
34.500000, 63.610, -155.8044
35.000000, 63.618, -156.4812
35.500000, 63.592, -157.2692
36.000000, 63.515, -157.8654
36.500000, 63.436, -157.9518
37.000000, 63.441, -157.6799
37.500000, 63.547, -157.6634
38.200001, 63.702, -158.6754
38.700001, 63.716, -159.6404
39.500000, 63.665, -160.4483
40.000000, 63.674, -160.6986
40.599998, 63.692, -161.2209
41.200001, 63.649, -161.7595
41.799999, 63.584, -161.8934
42.500000, 63.578, -161.7996
43.099998, 63.616, -162.0300
43.700001, 63.633, -162.5807
44.400002, 63.610, -163.2808
45.000000, 63.579, -163.7218
45.500000, 63.567, -163.9464
46.200001, 63.604, -164.2022
46.799999, 63.678, -164.6221
47.500000, 63.754, -165.4171
48.200001, 63.781, -166.1959
48.700001, 63.784, -166.5564
49.400002, 63.798, -166.7961
50.000000, 63.827, -166.9133
50.799999, 63.861, -167.1398
51.500000, 63.856, -167.3074
52.200001, 63.834, -167.2428
53.000000, 63.841, -167.0178
53.799999, 63.877, -167.0691
54.500000, 63.888, -167.3649
55.200001, 63.877, -167.6446
56.000000, 63.881, -167.9425
57.000000, 63.888, -168.5973
58.000000, 63.848, -169.0569
59.000000, 63.875, -169.2095
60.000000, 63.923, -169.8561
60.799999, 63.902, -170.4243
61.500000, 63.864, -170.7074
62.200001, 63.829, -170.8344
63.000000, 63.805, -170.8696
64.000000, 63.802, -170.9362
65.000000, 63.811, -171.0715
66.000000, 63.846, -171.3015
67.000000, 63.877, -171.7919
68.000000, 63.879, -172.2570
69.000000, 63.887, -172.6035
70.000000, 63.896, -173.0150
71.000000, 63.884, -173.3655
72.000000, 63.873, -173.5973
73.000000, 63.855, -173.8163
74.000000, 63.830, -173.8268
75.000000, 63.843, -173.7934
76.199997, 63.851, -174.0124
77.500000, 63.866, -174.1349
78.800003, 63.890, -174.6577
80.000000, 63.866, -175.0398
81.199997, 63.877, -175.2073
82.500000, 63.902, -175.6544
83.800003, 63.872, -175.9362
85.000000, 63.888, -175.7996
86.199997, 63.924, -176.2022
87.500000, 63.875, -176.6033
88.500000, 63.862, -176.7252
90.000000, 63.828, -177.4046
91.199997, 63.771, -177.5954
92.500000, 63.789, -177.5980
93.800003, 63.835, -177.9710
95.000000, 63.841, -178.2998
96.199997, 63.843, -178.4586
97.500000, 63.825, -178.6376
98.800003, 63.795, -178.5884
100.000000, 63.800, -178.5585
101.500000, 63.806, -178.9645
103.000000, 63.774, -179.4702
104.400002, 63.742, -179.8612
106.000000, 63.712, 179.7699
107.500000, 63.689, 179.5539
109.000000, 63.682, 179.4057
110.599998, 63.670, 179.3178
112.000000, 63.666, 179.2844
113.800003, 63.667, 179.1816
115.000000, 63.664, 179.0666
117.199997, 63.676, 178.9763
118.000000, 63.691, 178.8699
120.599998, 63.650, 178.0941
122.000000, 63.564, 177.8392
124.099998, 63.465, 177.5765
125.000000, 63.433, 177.3575
126.500000, 63.409, 177.1201
128.000000, 63.438, 176.9337
131.500000, 63.549, 176.6179
132.000000, 63.544, 176.5536
134.000000, 63.483, 176.4837
136.000000, 63.428, 176.2473
138.000000, 63.384, 175.8071
140.000000, 63.364, 175.5378
143.000000, 63.378, 175.6044
145.000000, 63.399, 175.3357
147.500000, 63.372, 174.8591
150.000000, 63.285, 174.8275
152.500000, 63.160, 175.1282
155.000000, 63.027, 175.2730
157.500000, 62.967, 175.4408
160.000000, 62.971, 175.8720
162.500000, 62.986, 176.2219
165.000000, 62.995, 176.0505
167.500000, 63.026, 175.5654
170.000000, 63.060, 175.3601
172.500000, 63.106, 175.4562
175.000000, 63.151, 175.5060
177.500000, 63.211, 175.1263
180.000000, 63.191, 174.3657
182.500000, 63.094, 173.9440
185.000000, 62.987, 173.7133
187.500000, 62.904, 173.2709
190.000000, 62.883, 172.9837
192.500000, 62.925, 172.9821
195.000000, 62.958, 173.1303
197.500000, 62.931, 173.0150
200.000000, 62.889, 172.3198
203.000000, 62.836, 171.5145
206.000000, 62.833, 171.7655
209.000000, 62.829, 172.2464
212.000000, 62.774, 172.5998
214.000000, 62.727, 172.7395
218.000000, 62.633, 172.5308
220.000000, 62.590, 172.4858
224.000000, 62.566, 172.7971
227.000000, 62.587, 172.6498
230.000000, 62.596, 172.1318
233.000000, 62.570, 171.6164
236.000000, 62.516, 171.1931
240.000000, 62.458, 171.7274
243.000000, 62.415, 171.6645
247.000000, 62.324, 171.7271
250.000000, 62.397, 171.7638
254.000000, 62.459, 171.2150
258.000000, 62.609, 171.6424
262.000000, 62.804, 171.9415
265.000000, 62.725, 171.6641
269.000000, 62.406, 170.9491
272.000000, 62.162, 170.3784
276.000000, 62.015, 170.1639
280.000000, 62.029, 170.1524
285.000000, 62.013, 169.9817
290.000000, 62.016, 169.9108
295.000000, 62.038, 170.1872
300.000000, 61.971, 170.2339
304.000000, 61.833, 170.0101
307.000000, 61.769, 169.8676
311.000000, 61.748, 169.8276
315.000000, 61.746, 169.7527
320.000000, 61.780, 169.7627
325.000000, 61.655, 170.0408
330.000000, 61.544, 170.3997
335.000000, 61.533, 170.8499
340.000000, 61.551, 171.1231
345.000000, 61.607, 170.7563
350.000000, 61.597, 170.6469
355.000000, 61.494, 171.3588
360.000000, 61.421, 171.1566
365.000000, 61.346, 170.5146
370.000000, 61.229, 170.3091
375.000000, 61.165, 170.0500
382.000000, 61.175, 169.4539
387.000000, 61.195, 169.6587
395.000000, 61.074, 171.1425
400.000000, 61.000, 171.1222
406.000000, 60.910, 171.2321
412.000000, 60.895, 170.9750
418.000000, 60.853, 170.9362
425.000000, 60.864, 171.8821
431.000000, 60.844, 172.3511
437.000000, 60.781, 172.4047
444.000000, 60.709, 172.5826
450.000000, 60.658, 172.3138
455.000000, 60.624, 172.3978
462.000000, 60.576, 172.7358
468.000000, 60.505, 172.7056
475.000000, 60.429, 172.8018
482.000000, 60.400, 172.8380
487.000000, 60.415, 172.7900
494.000000, 60.452, 172.8923
500.000000, 60.451, 173.0490
508.000000, 60.359, 173.0263
515.000000, 60.292, 173.1578
522.000000, 60.202, 174.0843
530.000000, 60.098, 175.3397
538.000000, 60.073, 176.0691
545.000000, 60.035, 175.9762
552.000000, 60.061, 176.0269
560.000000, 60.102, 176.4855
570.000000, 60.019, 177.2327
580.000000, 59.895, 177.0333
590.000000, 59.816, 177.0762
600.000000, 59.736, 177.5682
608.000000, 59.699, 178.1754
615.000000, 59.660, 178.5233
622.000000, 59.632, 178.8731
630.000000, 59.622, 179.2519
640.000000, 59.571, 179.5296
650.000000, 59.488, 179.5775
660.000000, 59.454, -179.7546
670.000000, 59.412, -178.8220
680.000000, 59.369, -178.2742
690.000000, 59.315, -177.8732
700.000000, 59.297, -177.3045
710.000000, 59.260, -176.4697
720.000000, 59.193, -175.8023
730.000000, 59.180, -175.3387
740.000000, 59.181, -174.5152
750.000000, 59.168, -173.8543
762.000000, 59.153, -173.4069
775.000000, 59.119, -172.6001
788.000000, 59.102, -171.8776
800.000000, 59.103, -171.2448
812.000000, 59.097, -170.4736
825.000000, 59.117, -169.6890
838.000000, 59.124, -169.0629
850.000000, 59.111, -168.1381
862.000000, 59.095, -167.0228
875.000000, 59.083, -166.1267
885.000000, 59.080, -165.5861
900.000000, 59.102, -164.7319
912.000000, 59.116, -164.0040
925.000000, 59.121, -163.1866
938.000000, 59.152, -162.4054
950.000000, 59.208, -161.6827
962.000000, 59.253, -160.8385
975.000000, 59.302, -159.9183
988.000000, 59.359, -159.1084
1000.000000, 59.423, -158.4366
1015.000000, 59.498, -157.5855
1030.000000, 59.561, -156.7775
1044.000000, 59.632, -156.0703
1060.000000, 59.722, -155.3440
1075.000000, 59.814, -154.6924
1090.000000, 59.903, -154.0996
1106.000000, 59.997, -153.4822
1120.000000, 60.080, -152.9537
1138.000000, 60.178, -152.2737
1150.000000, 60.246, -151.8208
1172.000000, 60.393, -151.1189
1180.000000, 60.447, -150.9012
1206.000000, 60.613, -150.1854
1220.000000, 60.693, -149.8395
1241.000000, 60.814, -149.3782
1250.000000, 60.861, -149.1831
1265.000000, 60.937, -148.8734
1280.000000, 61.014, -148.5830
1315.000000, 61.189, -147.9196
1320.000000, 61.212, -147.8117
1340.000000, 61.303, -147.3823
1360.000000, 61.399, -147.0204
1380.000000, 61.495, -146.7074
1400.000000, 61.586, -146.3895
1430.000000, 61.716, -145.9668
1450.000000, 61.806, -145.6439
1475.000000, 61.921, -145.1855
1500.000000, 62.022, -144.7271
1525.000000, 62.132, -144.3145
1550.000000, 62.242, -143.9424
1575.000000, 62.346, -143.5753
1600.000000, 62.451, -143.2314
1625.000000, 62.556, -142.8165
1650.000000, 62.661, -142.3746
1675.000000, 62.765, -142.0743
1700.000000, 62.875, -141.7172
1725.000000, 62.993, -141.3759
1750.000000, 63.115, -141.0331
1775.000000, 63.227, -140.6553
1800.000000, 63.339, -140.3130
1825.000000, 63.459, -140.0264
1850.000000, 63.587, -139.7516
1875.000000, 63.716, -139.4744
1900.000000, 63.846, -139.1939
1925.000000, 63.976, -138.9432
1950.000000, 64.106, -138.7259
1975.000000, 64.237, -138.5275
2000.000000, 64.370, -138.3434
2030.000000, 64.531, -138.1742
2060.000000, 64.696, -138.0418
2090.000000, 64.868, -137.9292
2120.000000, 65.042, -137.8832
2140.000000, 65.159, -137.8933
2180.000000, 65.390, -137.9943
2200.000000, 65.506, -138.0797
2240.000000, 65.735, -138.3168
2270.000000, 65.906, -138.5529
2300.000000, 66.075, -138.8276
2330.000000, 66.241, -139.1581
2360.000000, 66.404, -139.5557
2400.000000, 66.616, -140.1720
2430.000000, 66.771, -140.6989
2470.000000, 66.968, -141.4813
2500.000000, 67.109, -142.1237
2540.000000, 67.286, -143.0579
2580.000000, 67.452, -144.0757
2620.000000, 67.603, -145.1636
2650.000000, 67.706, -146.0152
2690.000000, 67.828, -147.1939
2720.000000, 67.909, -148.1043
2760.000000, 68.001, -149.3417
2800.000000, 68.075, -150.6004
2850.000000, 68.142, -152.1806
2900.000000, 68.180, -153.7428
2950.000000, 68.192, -155.2696
3000.000000, 68.178, -156.7366
3040.000000, 68.152, -157.8565
3070.000000, 68.123, -158.6582
3110.000000, 68.074, -159.6686
3150.000000, 68.013, -160.6052
3200.000000, 67.926, -161.6641
3250.000000, 67.827, -162.5979
3300.000000, 67.721, -163.4060
3350.000000, 67.610, -164.0992
3400.000000, 67.497, -164.6867
3450.000000, 67.382, -165.1649
3500.000000, 67.267, -165.5419
3550.000000, 67.154, -165.8286
3600.000000, 67.043, -166.0267
3650.000000, 66.935, -166.1408
3700.000000, 66.831, -166.1770
3750.000000, 66.731, -166.1373
3820.000000, 66.603, -165.9562
3870.000000, 66.520, -165.7446
3950.000000, 66.412, -165.3017
4000.000000, 66.359, -164.9924
4060.000000, 66.310, -164.6212
4120.000000, 66.269, -164.2622
4180.000000, 66.237, -163.9048
4250.000000, 66.210, -163.4586
4310.000000, 66.204, -163.0554
4370.000000, 66.215, -162.6687
4440.000000, 66.251, -162.3058
4500.000000, 66.297, -162.1198
4550.000000, 66.339, -162.0639
4620.000000, 66.397, -162.1389
4680.000000, 66.440, -162.3319
4750.000000, 66.477, -162.6643
4820.000000, 66.498, -163.0630
4870.000000, 66.503, -163.3659
4940.000000, 66.500, -163.8002
5000.000000, 66.490, -164.1773
5080.000000, 66.466, -164.6861
5150.000000, 66.437, -165.1422
5220.000000, 66.398, -165.6017
5300.000000, 66.343, -166.1334
5380.000000, 66.275, -166.6652
5450.000000, 66.202, -167.1138
5520.000000, 66.117, -167.5335
5600.000000, 66.006, -167.9527
5700.000000, 65.848, -168.3429
5800.000000, 65.678, -168.5533
5900.000000, 65.506, -168.5713
6000.000000, 65.337, -168.3946
6080.000000, 65.208, -168.1247
6150.000000, 65.103, -167.8035
6220.000000, 65.006, -167.4088
6300.000000, 64.908, -166.8725
6400.000000, 64.810, -166.0960
6500.000000, 64.745, -165.2354
6600.000000, 64.716, -164.3326
6700.000000, 64.727, -163.4474
6800.000000, 64.778, -162.6337
6900.000000, 64.871, -161.9450
7000.000000, 65.001, -161.4325
7100.000000, 65.168, -161.1386
7200.000000, 65.373, -161.1132
7300.000000, 65.614, -161.4320
7400.000000, 65.886, -162.1932
7500.000000, 66.179, -163.4921
7620.000000, 66.538, -165.8958
7750.000000, 66.892, -169.7113
7880.000000, 67.138, -174.8715
8000.000000, 67.191, 179.3223
8120.000000, 67.009, 172.9276
8250.000000, 66.518, 166.0409
8380.000000, 65.746, 159.9557
8500.000000, 64.851, 155.5128
8620.000000, 63.859, 152.3618
8750.000000, 62.747, 150.3472
8850.000000, 61.902, 149.6702
9000.000000, 60.691, 149.8061
9120.000000, 59.788, 150.6972
9250.000000, 58.885, 152.2514
9380.000000, 58.062, 154.2557
9500.000000, 57.369, 156.4017
9620.000000, 56.736, 158.7712
9750.000000, 56.115, 161.5302
9880.000000, 55.560, 164.4304
10000.000000, 55.103, 167.1912
10150.000000, 54.603, 170.7075
10300.000000, 54.178, 174.2488
10440.000000, 53.846, 177.5373
10600.000000, 53.542, -178.7634
10750.000000, 53.327, -175.3919
10900.000000, 53.175, -172.1608
11060.000000, 53.084, -168.9092
11200.000000, 53.062, -166.2571
11380.000000, 53.112, -163.1763
11500.000000, 53.192, -161.3724
11720.000000, 53.432, -158.6884
11800.000000, 53.547, -157.9414
12060.000000, 54.006, -156.5169
12200.000000, 54.293, -156.4663
12410.000000, 54.750, -157.4376
12500.000000, 54.947, -158.2616
12650.000000, 55.262, -160.1988
12800.000000, 55.540, -162.8300
13150.000000, 55.922, -171.2144
13200.000000, 55.936, -172.5880
13400.000000, 55.884, -178.2279
13600.000000, 55.678, 176.2669
13800.000000, 55.368, 171.2366
14000.000000, 55.022, 166.8181
14300.000000, 54.595, 161.1388
14500.000000, 54.455, 157.5703
14750.000000, 54.509, 152.5879
15000.000000, 54.841, 145.9932
15250.000000, 55.393, 136.4283
15500.000000, 55.948, 122.6795
15750.000000, 56.118, 104.6376
16000.000000, 55.525, 84.1595
16250.000000, 54.090, 64.3185
16500.000000, 52.079, 47.3563
16750.000000, 49.883, 33.5650
17000.000000, 47.777, 21.8623
17250.000000, 45.860, 10.9499
17500.000000, 44.120, -0.2368
17750.000000, 42.496, -12.4822
18000.000000, 40.927, -26.3898
18250.000000, 39.353, -42.4874
18500.000000, 37.715, -61.3760
18750.000000, 35.920, -83.6960
19000.000000, 33.851, -109.9372
19250.000000, 31.351, -140.3156
19500.000000, 28.257, -174.7742
19750.000000, 24.557, 146.7121
20000.000000, 21.272, 109.5581
