* Measurement data measured by REW V5.31.3
* Source: USB-C to 3.5mm Headphone Jack Adapter, USB-C to 3.5mm Headphone Jack Adapter, 0, volume: 0.264
* Format: 512k Log Swept Sine, 1 sweep at -12.0 dBFS with no timing reference
* Dated: Apr 29, 2025 7:01:23 AM
* REW Settings:
*  C-weighting compensation: Off
*  Target level: 75.0 dB
* Note: ; SN: 69
* Measurement: Subtonic Storm Propeller L
* Smoothing: 1/24 octave
* Frequency Step: 1/48 octave
* Start Frequency: 1.000 Hz
*
* Freq(Hz), SPL(dB), Phase(degrees)
1.000000, 79.079, -56.9803
1.015000, 79.038, -57.7184
1.030000, 78.997, -58.4356
1.044000, 78.960, -59.0838
1.060000, 78.917, -59.7966
1.075000, 78.877, -60.4352
1.090000, 78.838, -61.0425
1.106000, 78.796, -61.6553
1.120000, 78.759, -62.1651
1.138000, 78.710, -62.7884
1.150000, 78.676, -63.1853
1.172000, 78.614, -63.8771
1.180000, 78.591, -64.1178
1.206000, 78.516, -64.8634
1.220000, 78.475, -65.2433
1.241000, 78.414, -65.7875
1.250000, 78.388, -66.0119
1.265000, 78.344, -66.3751
1.280000, 78.302, -66.7256
1.315000, 78.205, -67.5002
1.320000, 78.192, -67.6064
1.340000, 78.139, -68.0216
1.360000, 78.089, -68.4229
1.380000, 78.042, -68.8126
1.400000, 77.998, -69.1925
1.430000, 77.938, -69.7485
1.450000, 77.903, -70.1115
1.475000, 77.865, -70.5498
1.500000, 77.830, -70.9476
1.525000, 77.797, -71.2961
1.550000, 77.767, -71.5988
1.575000, 77.741, -71.8610
1.600000, 77.717, -72.0883
1.625000, 77.698, -72.2860
1.650000, 77.683, -72.4601
1.675000, 77.673, -72.6161
1.700000, 77.668, -72.7600
1.725000, 77.669, -72.8976
1.750000, 77.675, -73.0347
1.775000, 77.688, -73.1771
1.800000, 77.708, -73.3299
1.825000, 77.735, -73.4944
1.850000, 77.770, -73.6564
1.875000, 77.814, -73.7952
1.900000, 77.865, -73.9080
1.925000, 77.923, -74.0004
1.950000, 77.987, -74.0792
1.975000, 78.058, -74.1515
2.000000, 78.133, -74.2238
2.030000, 78.229, -74.3199
2.060000, 78.331, -74.4365
2.090000, 78.437, -74.5839
2.120000, 78.545, -74.7719
2.140000, 78.619, -74.9244
2.180000, 78.768, -75.3039
2.200000, 78.843, -75.5303
2.240000, 79.000, -76.0300
2.270000, 79.125, -76.4302
2.300000, 79.256, -76.8495
2.330000, 79.390, -77.2884
2.360000, 79.528, -77.7478
2.400000, 79.715, -78.3940
2.430000, 79.855, -78.9056
2.470000, 80.040, -79.6264
2.500000, 80.176, -80.1983
2.540000, 80.351, -81.0063
2.580000, 80.520, -81.8721
2.620000, 80.685, -82.7980
2.650000, 80.808, -83.5262
2.690000, 80.971, -84.5311
2.720000, 81.091, -85.3032
2.760000, 81.248, -86.3481
2.800000, 81.401, -87.4017
2.850000, 81.584, -88.7191
2.900000, 81.756, -90.0276
2.950000, 81.917, -91.3367
3.000000, 82.068, -92.6825
3.040000, 82.182, -93.7874
3.070000, 82.264, -94.6254
3.110000, 82.368, -95.7456
3.150000, 82.467, -96.8585
3.200000, 82.583, -98.2228
3.250000, 82.691, -99.5405
3.300000, 82.791, -100.8055
3.350000, 82.881, -102.0461
3.400000, 82.962, -103.2852
3.450000, 83.034, -104.5149
3.500000, 83.098, -105.7194
3.550000, 83.157, -106.8817
3.600000, 83.212, -107.9853
3.650000, 83.262, -109.0176
3.700000, 83.309, -109.9832
3.750000, 83.349, -110.9008
3.820000, 83.395, -112.1162
3.870000, 83.424, -112.9330
3.950000, 83.469, -114.1402
4.000000, 83.499, -114.8246
4.060000, 83.538, -115.5657
4.120000, 83.576, -116.2182
4.180000, 83.614, -116.7943
4.250000, 83.661, -117.3916
4.310000, 83.707, -117.8574
4.370000, 83.759, -118.2925
4.440000, 83.830, -118.7547
4.500000, 83.899, -119.0963
4.550000, 83.960, -119.3494
4.620000, 84.053, -119.6802
4.680000, 84.137, -119.9648
4.750000, 84.241, -120.3214
4.820000, 84.352, -120.7009
4.870000, 84.436, -120.9753
4.940000, 84.559, -121.3665
5.000000, 84.667, -121.7177
5.080000, 84.810, -122.2253
5.150000, 84.933, -122.7172
5.220000, 85.054, -123.2520
5.300000, 85.193, -123.9029
5.380000, 85.327, -124.5822
5.450000, 85.437, -125.1918
5.520000, 85.540, -125.8166
5.600000, 85.650, -126.5594
5.700000, 85.776, -127.5145
5.800000, 85.888, -128.4560
5.900000, 85.987, -129.3565
6.000000, 86.070, -130.2325
6.080000, 86.128, -130.9113
6.150000, 86.175, -131.4760
6.220000, 86.218, -132.0037
6.300000, 86.263, -132.5613
6.400000, 86.312, -133.2006
6.500000, 86.358, -133.7820
6.600000, 86.405, -134.3045
6.700000, 86.454, -134.7630
6.800000, 86.504, -135.1678
6.900000, 86.557, -135.5436
7.000000, 86.615, -135.9046
7.100000, 86.678, -136.2465
7.200000, 86.745, -136.5803
7.300000, 86.815, -136.9279
7.400000, 86.887, -137.2984
7.500000, 86.962, -137.6877
7.620000, 87.051, -138.1833
7.750000, 87.145, -138.7658
7.880000, 87.236, -139.3948
8.000000, 87.315, -140.0050
8.120000, 87.389, -140.6368
8.250000, 87.461, -141.3456
8.380000, 87.528, -142.0688
8.500000, 87.585, -142.7407
8.620000, 87.636, -143.4178
8.750000, 87.688, -144.1562
8.850000, 87.725, -144.7264
9.000000, 87.777, -145.5867
9.120000, 87.814, -146.2816
9.250000, 87.851, -147.0436
9.380000, 87.884, -147.8142
9.500000, 87.909, -148.5281
9.620000, 87.929, -149.2439
9.750000, 87.945, -150.0168
9.880000, 87.954, -150.7707
10.000000, 87.956, -151.4427
10.150000, 87.952, -152.2428
10.300000, 87.944, -152.9730
10.440000, 87.933, -153.5831
10.600000, 87.924, -154.1954
10.750000, 87.922, -154.6809
10.900000, 87.930, -155.0973
11.060000, 87.955, -155.4979
11.200000, 87.993, -155.8267
11.380000, 88.062, -156.2839
11.500000, 88.121, -156.6320
11.720000, 88.246, -157.4054
11.800000, 88.294, -157.7439
12.060000, 88.451, -159.0474
12.200000, 88.526, -159.8709
12.410000, 88.617, -161.2188
12.500000, 88.645, -161.8158
12.650000, 88.678, -162.8209
12.800000, 88.693, -163.7955
13.150000, 88.666, -165.7664
13.200000, 88.658, -165.9981
13.400000, 88.621, -166.7785
13.600000, 88.590, -167.3337
13.800000, 88.577, -167.6900
14.000000, 88.594, -167.9347
14.300000, 88.675, -168.2792
14.500000, 88.758, -168.6256
14.750000, 88.871, -169.2672
15.000000, 88.971, -170.1330
15.250000, 89.036, -171.1255
15.500000, 89.059, -172.0903
15.750000, 89.050, -172.8874
16.000000, 89.030, -173.4189
16.250000, 89.030, -173.7050
16.500000, 89.072, -173.8678
16.750000, 89.164, -174.1109
17.000000, 89.292, -174.6392
17.250000, 89.426, -175.5634
17.500000, 89.531, -176.8869
17.750000, 89.576, -178.4841
18.000000, 89.543, 179.8421
18.250000, 89.433, 178.3227
18.500000, 89.264, 177.1803
18.750000, 89.070, 176.5564
19.000000, 88.894, 176.4854
19.250000, 88.779, 176.8384
19.500000, 88.749, 177.3659
19.750000, 88.801, 177.7894
20.000000, 88.911, 177.8874
20.299999, 89.067, 177.4674
20.600000, 89.201, 176.5464
20.900000, 89.284, 175.3460
21.200001, 89.313, 174.1072
21.400000, 89.312, 173.3486
21.799999, 89.288, 172.0836
22.000000, 89.277, 171.5681
22.400000, 89.273, 170.6727
22.700001, 89.283, 170.0434
23.000000, 89.298, 169.4148
23.299999, 89.315, 168.7846
23.600000, 89.334, 168.1529
24.000000, 89.362, 167.2814
24.299999, 89.382, 166.5743
24.700001, 89.393, 165.5465
25.000000, 89.379, 164.7554
25.400000, 89.329, 163.8007
25.799999, 89.262, 163.0820
26.200001, 89.212, 162.5877
26.500000, 89.202, 162.2469
26.900000, 89.221, 161.6174
27.200001, 89.240, 160.9202
27.600000, 89.233, 159.7179
28.000000, 89.166, 158.4153
28.500000, 89.008, 157.0890
29.000000, 88.842, 156.3842
29.500000, 88.753, 156.1122
30.000000, 88.760, 155.7853
30.400000, 88.805, 155.2549
30.700001, 88.845, 154.6834
31.100000, 88.888, 153.7493
31.500000, 88.912, 152.7085
32.000000, 88.913, 151.3915
32.500000, 88.886, 150.1824
33.000000, 88.841, 149.1686
33.500000, 88.793, 148.3542
34.000000, 88.749, 147.6806
34.500000, 88.704, 147.1130
35.000000, 88.658, 146.6734
35.500000, 88.625, 146.3421
36.000000, 88.617, 145.9754
36.500000, 88.618, 145.3984
37.000000, 88.595, 144.5972
37.500000, 88.530, 143.7574
38.200001, 88.411, 142.8513
38.700001, 88.356, 142.3086
39.500000, 88.314, 141.0548
40.000000, 88.265, 140.0238
40.599998, 88.173, 138.8912
41.200001, 88.095, 138.0395
41.799999, 88.067, 137.2277
42.500000, 88.052, 136.0543
43.099998, 88.013, 135.0588
43.700001, 87.972, 134.2695
44.400002, 87.950, 133.4300
45.000000, 87.923, 132.6491
45.500000, 87.880, 132.0766
46.200001, 87.825, 131.5255
46.799999, 87.814, 131.0342
47.500000, 87.799, 130.0813
48.200001, 87.712, 128.9713
48.700001, 87.616, 128.4049
49.400002, 87.513, 128.0194
50.000000, 87.496, 127.7048
50.799999, 87.521, 126.6707
51.500000, 87.487, 125.3307
52.200001, 87.386, 124.1349
53.000000, 87.252, 123.2351
53.799999, 87.142, 122.7468
54.500000, 87.093, 122.5271
55.200001, 87.096, 122.1819
56.000000, 87.106, 121.3850
57.000000, 87.061, 120.2355
58.000000, 87.013, 119.1076
59.000000, 86.936, 117.7682
60.000000, 86.814, 116.6321
60.799999, 86.728, 115.9356
61.500000, 86.669, 115.3487
62.200001, 86.616, 114.7294
63.000000, 86.553, 114.0010
64.000000, 86.470, 113.0975
65.000000, 86.376, 112.2431
66.000000, 86.287, 111.5330
67.000000, 86.229, 110.8275
68.000000, 86.176, 109.9237
69.000000, 86.097, 108.9954
70.000000, 86.014, 108.2256
71.000000, 85.941, 107.5018
72.000000, 85.870, 106.8200
73.000000, 85.811, 106.1429
74.000000, 85.757, 105.3716
75.000000, 85.698, 104.5354
76.199997, 85.620, 103.5341
77.500000, 85.545, 102.4334
78.800003, 85.461, 101.3319
80.000000, 85.397, 100.3652
81.199997, 85.321, 99.3852
82.500000, 85.246, 98.5443
83.800003, 85.174, 97.7200
85.000000, 85.094, 97.1293
86.199997, 85.015, 96.6387
87.500000, 84.914, 96.1052
88.500000, 84.831, 95.6955
90.000000, 84.705, 94.8954
91.199997, 84.601, 94.0914
92.500000, 84.493, 93.1557
93.800003, 84.401, 92.2696
95.000000, 84.335, 91.5434
96.199997, 84.280, 90.9029
97.500000, 84.224, 90.2621
98.800003, 84.162, 89.5929
100.000000, 84.091, 88.9451
101.500000, 83.991, 88.0953
103.000000, 83.888, 87.3174
104.400002, 83.806, 86.6410
106.000000, 83.726, 85.9296
107.500000, 83.654, 85.1977
109.000000, 83.579, 84.4677
110.599998, 83.507, 83.6161
112.000000, 83.441, 82.8978
113.800003, 83.372, 82.1196
115.000000, 83.326, 81.5959
117.199997, 83.212, 80.7325
118.000000, 83.169, 80.4537
120.599998, 83.043, 79.3028
122.000000, 82.966, 78.6614
124.099998, 82.872, 77.9348
125.000000, 82.844, 77.6271
126.500000, 82.798, 77.0051
128.000000, 82.730, 76.2929
131.500000, 82.530, 75.0169
132.000000, 82.506, 74.8767
134.000000, 82.434, 74.3243
136.000000, 82.377, 73.6591
138.000000, 82.306, 72.9616
140.000000, 82.229, 72.3443
143.000000, 82.108, 71.4608
145.000000, 82.030, 70.8924
147.500000, 81.953, 70.1530
150.000000, 81.895, 69.4285
152.500000, 81.844, 68.6830
155.000000, 81.779, 67.9215
157.500000, 81.720, 67.1435
160.000000, 81.643, 66.6732
162.500000, 81.580, 65.9063
165.000000, 81.501, 65.3623
167.500000, 81.464, 64.5231
170.000000, 81.388, 63.8085
172.500000, 81.322, 63.4254
175.000000, 81.316, 63.0489
177.500000, 81.288, 62.0374
180.000000, 81.160, 61.2157
182.500000, 81.073, 61.0791
185.000000, 81.081, 60.7729
187.500000, 81.076, 60.0536
190.000000, 80.979, 59.4975
192.500000, 80.857, 59.2411
195.000000, 80.749, 58.9903
197.500000, 80.686, 58.6395
200.000000, 80.667, 57.8789
203.000000, 80.693, 56.7591
206.000000, 80.765, 56.0063
209.000000, 80.794, 55.6478
212.000000, 80.754, 55.2632
214.000000, 80.718, 54.8873
218.000000, 80.687, 54.2478
220.000000, 80.674, 53.9539
224.000000, 80.617, 53.3274
227.000000, 80.578, 52.8040
230.000000, 80.559, 52.1872
233.000000, 80.557, 51.6086
236.000000, 80.550, 51.2134
240.000000, 80.525, 50.7627
243.000000, 80.503, 50.2758
247.000000, 80.493, 49.7006
250.000000, 80.470, 49.2846
254.000000, 80.454, 48.7682
258.000000, 80.460, 48.1864
262.000000, 80.462, 47.4889
265.000000, 80.445, 46.9982
269.000000, 80.421, 46.5230
272.000000, 80.412, 46.2313
276.000000, 80.426, 45.7779
280.000000, 80.441, 45.1470
285.000000, 80.444, 44.4464
290.000000, 80.442, 43.9305
295.000000, 80.432, 43.3462
300.000000, 80.439, 42.6520
304.000000, 80.450, 42.1289
307.000000, 80.460, 41.7711
311.000000, 80.469, 41.3171
315.000000, 80.475, 40.8644
320.000000, 80.484, 40.2589
325.000000, 80.497, 39.6510
330.000000, 80.515, 39.1132
335.000000, 80.524, 38.4837
340.000000, 80.534, 37.9244
345.000000, 80.552, 37.3848
350.000000, 80.569, 36.8206
355.000000, 80.584, 36.2386
360.000000, 80.600, 35.6581
365.000000, 80.616, 35.1118
370.000000, 80.635, 34.5635
375.000000, 80.654, 34.0117
382.000000, 80.681, 33.2487
387.000000, 80.696, 32.7036
395.000000, 80.717, 31.8435
400.000000, 80.734, 31.2882
406.000000, 80.750, 30.7018
412.000000, 80.766, 30.1385
418.000000, 80.787, 29.4684
425.000000, 80.810, 28.7393
431.000000, 80.822, 28.0464
437.000000, 80.821, 27.5037
444.000000, 80.841, 26.9646
450.000000, 80.863, 26.3828
455.000000, 80.871, 25.8674
462.000000, 80.874, 25.1126
468.000000, 80.884, 24.4273
475.000000, 80.910, 23.7339
482.000000, 80.930, 23.1741
487.000000, 80.935, 22.7476
494.000000, 80.943, 22.1274
500.000000, 80.951, 21.6025
508.000000, 80.962, 20.8949
515.000000, 80.970, 20.2944
522.000000, 80.977, 19.7057
530.000000, 80.980, 19.0430
538.000000, 80.982, 18.4138
545.000000, 80.985, 17.8763
552.000000, 80.986, 17.3233
560.000000, 80.986, 16.7126
570.000000, 80.984, 15.9905
580.000000, 80.982, 15.2810
590.000000, 80.979, 14.6108
600.000000, 80.975, 13.9503
608.000000, 80.969, 13.4390
615.000000, 80.963, 13.0016
622.000000, 80.957, 12.5851
630.000000, 80.949, 12.1271
640.000000, 80.940, 11.5660
650.000000, 80.930, 11.0043
660.000000, 80.920, 10.4682
670.000000, 80.911, 9.9656
680.000000, 80.901, 9.5223
690.000000, 80.891, 9.0776
700.000000, 80.882, 8.6280
710.000000, 80.872, 8.2188
720.000000, 80.861, 7.8473
730.000000, 80.854, 7.4905
740.000000, 80.849, 7.1525
750.000000, 80.844, 6.8409
762.000000, 80.836, 6.4850
775.000000, 80.827, 6.1226
788.000000, 80.824, 5.7889
800.000000, 80.823, 5.5092
812.000000, 80.825, 5.2605
825.000000, 80.832, 5.0228
838.000000, 80.839, 4.8197
850.000000, 80.848, 4.6501
862.000000, 80.861, 4.4908
875.000000, 80.880, 4.3298
885.000000, 80.900, 4.2156
900.000000, 80.931, 4.0687
912.000000, 80.959, 3.9550
925.000000, 80.996, 3.8215
938.000000, 81.039, 3.6883
950.000000, 81.081, 3.5743
962.000000, 81.126, 3.4628
975.000000, 81.180, 3.3262
988.000000, 81.237, 3.1910
1000.000000, 81.294, 3.0594
1015.000000, 81.367, 2.8589
1030.000000, 81.443, 2.6248
1044.000000, 81.517, 2.3888
1060.000000, 81.605, 2.0889
1075.000000, 81.688, 1.7858
1090.000000, 81.773, 1.4612
1106.000000, 81.866, 1.0821
1120.000000, 81.944, 0.7212
1138.000000, 82.043, 0.2208
1150.000000, 82.108, -0.1307
1172.000000, 82.225, -0.7969
1180.000000, 82.266, -1.0441
1206.000000, 82.396, -1.8723
1220.000000, 82.463, -2.3207
1241.000000, 82.558, -3.0190
1250.000000, 82.598, -3.3268
1265.000000, 82.662, -3.8350
1280.000000, 82.723, -4.3299
1315.000000, 82.860, -5.4722
1320.000000, 82.879, -5.6350
1340.000000, 82.953, -6.2750
1360.000000, 83.024, -6.8923
1380.000000, 83.094, -7.4908
1400.000000, 83.162, -8.0786
1430.000000, 83.262, -8.9468
1450.000000, 83.332, -9.4986
1475.000000, 83.417, -10.1735
1500.000000, 83.505, -10.8425
1525.000000, 83.595, -11.4991
1550.000000, 83.686, -12.1458
1575.000000, 83.779, -12.8059
1600.000000, 83.874, -13.4778
1625.000000, 83.971, -14.1496
1650.000000, 84.067, -14.8176
1675.000000, 84.164, -15.4911
1700.000000, 84.260, -16.1779
1725.000000, 84.354, -16.8729
1750.000000, 84.448, -17.5684
1775.000000, 84.542, -18.2656
1800.000000, 84.639, -18.9639
1825.000000, 84.739, -19.6650
1850.000000, 84.840, -20.3766
1875.000000, 84.943, -21.1191
1900.000000, 85.046, -21.8817
1925.000000, 85.150, -22.6703
1950.000000, 85.253, -23.4948
1975.000000, 85.353, -24.3516
2000.000000, 85.450, -25.2427
2030.000000, 85.563, -26.3483
2060.000000, 85.669, -27.4778
2090.000000, 85.768, -28.6335
2120.000000, 85.859, -29.8127
2140.000000, 85.916, -30.6096
2180.000000, 86.019, -32.2261
2200.000000, 86.063, -33.0475
2240.000000, 86.136, -34.6893
2270.000000, 86.178, -35.8963
2300.000000, 86.210, -37.0594
2330.000000, 86.233, -38.1738
2360.000000, 86.249, -39.2385
2400.000000, 86.262, -40.5828
2430.000000, 86.265, -41.5309
2470.000000, 86.262, -42.6993
2500.000000, 86.257, -43.4910
2540.000000, 86.253, -44.4167
2580.000000, 86.258, -45.1909
2620.000000, 86.281, -45.8411
2650.000000, 86.311, -46.2773
2690.000000, 86.374, -46.8267
2720.000000, 86.438, -47.2413
2760.000000, 86.547, -47.8402
2800.000000, 86.680, -48.5499
2850.000000, 86.874, -49.6903
2900.000000, 87.091, -51.2196
2950.000000, 87.307, -53.2507
3000.000000, 87.482, -55.8394
3040.000000, 87.563, -58.2627
3070.000000, 87.576, -60.2137
3110.000000, 87.520, -62.8486
3150.000000, 87.376, -65.3210
3200.000000, 87.093, -67.8800
3250.000000, 86.743, -69.6138
3300.000000, 86.387, -70.4594
3350.000000, 86.077, -70.5341
3400.000000, 85.848, -70.0685
3450.000000, 85.712, -69.3212
3500.000000, 85.670, -68.5248
3550.000000, 85.712, -67.8665
3600.000000, 85.825, -67.4956
3650.000000, 85.992, -67.5341
3700.000000, 86.194, -68.0761
3750.000000, 86.407, -69.2145
3820.000000, 86.666, -71.8729
3870.000000, 86.779, -74.4649
3950.000000, 86.748, -79.4470
4000.000000, 86.567, -82.7347
4060.000000, 86.180, -86.4113
4120.000000, 85.628, -89.4105
4180.000000, 84.949, -91.4034
4250.000000, 84.061, -92.1790
4310.000000, 83.276, -91.3457
4370.000000, 82.532, -89.0440
4440.000000, 81.830, -84.5371
4500.000000, 81.483, -79.5481
4550.000000, 81.416, -75.2734
4620.000000, 81.601, -70.3217
4680.000000, 81.877, -67.4879
4750.000000, 82.187, -65.4249
4820.000000, 82.446, -63.9475
4870.000000, 82.620, -62.9754
4940.000000, 82.890, -61.6707
5000.000000, 83.175, -60.7199
5080.000000, 83.653, -60.0899
5150.000000, 84.144, -60.5726
5220.000000, 84.640, -62.4014
5300.000000, 85.088, -66.3480
5380.000000, 85.247, -71.8755
5450.000000, 85.055, -77.1588
5520.000000, 84.552, -81.8862
5600.000000, 83.688, -85.6322
5700.000000, 82.410, -87.1262
5800.000000, 81.178, -85.4175
5900.000000, 80.155, -81.4370
6000.000000, 79.403, -76.1340
6080.000000, 79.001, -71.4547
6150.000000, 78.784, -67.3290
6220.000000, 78.683, -63.3445
6300.000000, 78.695, -59.1864
6400.000000, 78.863, -54.9499
6500.000000, 79.128, -52.2020
6600.000000, 79.383, -51.2546
6700.000000, 79.488, -52.0930
6800.000000, 79.292, -54.2251
6900.000000, 78.672, -56.6364
7000.000000, 77.569, -57.8298
7100.000000, 76.011, -55.9462
7200.000000, 74.171, -48.4378
7300.000000, 72.590, -32.0929
7400.000000, 72.332, -7.9100
7500.000000, 73.757, 13.1770
7620.000000, 76.297, 26.7600
7750.000000, 78.895, 32.0788
7880.000000, 81.085, 32.5303
8000.000000, 82.793, 30.4911
8120.000000, 84.244, 26.6439
8250.000000, 85.510, 20.5845
8380.000000, 86.369, 12.8556
8500.000000, 86.715, 5.0253
8620.000000, 86.621, -2.3521
8750.000000, 86.124, -8.6504
8850.000000, 85.573, -11.8469
9000.000000, 84.672, -13.9828
9120.000000, 84.007, -13.8300
9250.000000, 83.417, -12.3755
9380.000000, 82.993, -10.1708
9500.000000, 82.750, -7.9475
9620.000000, 82.627, -5.9509
9750.000000, 82.587, -4.4064
9880.000000, 82.580, -3.7411
10000.000000, 82.535, -3.9487
10150.000000, 82.331, -5.0256
10300.000000, 81.901, -6.2788
10440.000000, 81.299, -6.7875
10600.000000, 80.468, -5.8834
10750.000000, 79.674, -3.4493
10900.000000, 78.962, 0.1680
11060.000000, 78.327, 4.7164
11200.000000, 77.847, 9.0150
11380.000000, 77.326, 15.0962
11500.000000, 77.064, 19.3291
11720.000000, 76.731, 27.1697
11800.000000, 76.651, 30.0726
12060.000000, 76.582, 39.6588
12200.000000, 76.684, 44.8000
12410.000000, 77.037, 52.2122
12500.000000, 77.267, 55.1755
12650.000000, 77.758, 59.6580
12800.000000, 78.384, 63.3501
13150.000000, 80.278, 67.0342
13200.000000, 80.572, 66.7878
13400.000000, 81.675, 63.4767
13600.000000, 82.434, 56.7069
13800.000000, 82.604, 47.9984
14000.000000, 82.133, 39.7104
14300.000000, 80.648, 31.8766
14500.000000, 79.529, 30.2448
14750.000000, 78.294, 31.1877
15000.000000, 77.374, 34.3431
15250.000000, 76.905, 38.9828
15500.000000, 77.053, 43.4422
15750.000000, 77.784, 45.5116
16000.000000, 78.993, 43.9400
16250.000000, 80.558, 36.8113
16500.000000, 81.955, 22.3185
16750.000000, 82.468, 1.8466
17000.000000, 81.791, -20.1701
17250.000000, 80.290, -40.2213
17500.000000, 78.487, -58.5328
17750.000000, 76.559, -76.9386
18000.000000, 74.434, -96.8466
18250.000000, 71.888, -119.1282
18500.000000, 68.474, -142.4794
18750.000000, 63.819, -161.7308
19000.000000, 58.146, -168.9501
19250.000000, 53.008, -168.4597
19500.000000, 49.764, -178.9734
19750.000000, 47.213, 158.6912
20000.000000, 45.166, 134.2736
