* Measurement data measured by REW V5.31.3
* Source: USB-C to 3.5mm Headphone Jack Adapter, USB-C to 3.5mm Headphone Jack Adapter, 0, volume: 0.264
* Format: 256k Log Swept Sine, 1 sweep at -12.0 dBFS with no timing reference
* Dated: Feb 24, 2025 1:00:57 AM
* REW Settings:
*  C-weighting compensation: Off
*  Target level: 75.0 dB
* Note: ; 
* Measurement: Symphonium Helios L
* Smoothing: 1/24 octave
* Frequency Step: 1/48 octave
* Start Frequency: 1.000 Hz
*
* Freq(Hz), SPL(dB), Phase(degrees)
1.000000, 32.342, 135.7310
1.015000, 32.590, 132.9681
1.030000, 32.838, 130.2669
1.044000, 33.069, 127.7853
1.060000, 33.330, 124.9770
1.075000, 33.573, 122.3530
1.090000, 33.812, 119.7180
1.106000, 34.067, 116.8666
1.120000, 34.292, 114.3164
1.138000, 34.589, 110.9758
1.150000, 34.791, 108.7291
1.172000, 35.169, 104.6155
1.180000, 35.308, 103.1319
1.206000, 35.769, 98.3971
1.220000, 36.020, 95.9200
1.241000, 36.401, 92.3203
1.250000, 36.565, 90.8233
1.265000, 36.839, 88.3920
1.280000, 37.114, 86.0408
1.315000, 37.754, 80.8583
1.320000, 37.845, 80.1510
1.340000, 38.207, 77.3981
1.360000, 38.565, 74.7578
1.380000, 38.918, 72.2166
1.400000, 39.265, 69.7600
1.430000, 39.769, 66.2012
1.450000, 40.093, 63.8895
1.475000, 40.486, 61.0332
1.500000, 40.869, 58.1815
1.525000, 41.246, 55.3423
1.550000, 41.615, 52.5376
1.575000, 41.979, 49.7850
1.600000, 42.335, 47.0962
1.625000, 42.686, 44.4779
1.650000, 43.030, 41.9327
1.675000, 43.368, 39.4598
1.700000, 43.701, 37.0553
1.725000, 44.027, 34.7138
1.750000, 44.347, 32.4279
1.775000, 44.662, 30.1893
1.800000, 44.971, 27.9882
1.825000, 45.274, 25.8107
1.850000, 45.571, 23.6321
1.875000, 45.861, 21.4349
1.900000, 46.145, 19.2275
1.925000, 46.423, 17.0260
1.950000, 46.694, 14.8446
1.975000, 46.960, 12.6947
2.000000, 47.219, 10.5849
2.030000, 47.524, 8.1148
2.060000, 47.821, 5.7181
2.090000, 48.111, 3.3975
2.120000, 48.394, 1.1526
2.140000, 48.579, -0.3036
2.180000, 48.941, -3.1293
2.200000, 49.118, -4.5114
2.240000, 49.462, -7.2709
2.270000, 49.711, -9.3516
2.300000, 49.952, -11.4293
2.330000, 50.187, -13.4899
2.360000, 50.414, -15.5206
2.400000, 50.708, -18.1641
2.430000, 50.921, -20.0879
2.470000, 51.195, -22.5631
2.500000, 51.395, -24.3469
2.540000, 51.654, -26.6274
2.580000, 51.903, -28.8228
2.620000, 52.142, -30.9986
2.650000, 52.313, -32.6302
2.690000, 52.532, -34.7924
2.720000, 52.690, -36.3929
2.760000, 52.893, -38.4825
2.800000, 53.087, -40.5049
2.850000, 53.318, -42.9136
2.900000, 53.539, -45.1677
2.950000, 53.749, -47.2794
3.000000, 53.945, -49.3237
3.040000, 54.093, -50.9303
3.070000, 54.198, -52.1140
3.110000, 54.332, -53.6555
3.150000, 54.461, -55.1448
3.200000, 54.614, -56.9161
3.250000, 54.761, -58.5675
3.300000, 54.902, -60.0896
3.350000, 55.036, -61.5099
3.400000, 55.161, -62.8593
3.450000, 55.278, -64.1415
3.500000, 55.389, -65.3519
3.550000, 55.497, -66.4834
3.600000, 55.603, -67.5277
3.650000, 55.710, -68.4774
3.700000, 55.816, -69.3328
3.750000, 55.919, -70.1038
3.820000, 56.060, -71.0604
3.870000, 56.160, -71.6660
3.950000, 56.321, -72.5170
4.000000, 56.426, -72.9814
4.060000, 56.557, -73.4692
4.120000, 56.691, -73.8742
4.180000, 56.828, -74.2048
4.250000, 56.992, -74.5172
4.310000, 57.136, -74.7402
4.370000, 57.285, -74.9350
4.440000, 57.464, -75.1274
4.500000, 57.622, -75.2537
4.550000, 57.757, -75.3344
4.620000, 57.950, -75.4219
4.680000, 58.119, -75.4843
4.750000, 58.319, -75.5526
4.820000, 58.522, -75.6123
4.870000, 58.670, -75.6453
4.940000, 58.880, -75.6841
5.000000, 59.062, -75.7195
5.080000, 59.309, -75.7834
5.150000, 59.528, -75.8567
5.220000, 59.750, -75.9338
5.300000, 60.008, -76.0321
5.380000, 60.268, -76.1670
5.450000, 60.497, -76.3341
5.520000, 60.728, -76.5494
5.600000, 60.995, -76.8348
5.700000, 61.330, -77.2583
5.800000, 61.661, -77.7996
5.900000, 61.984, -78.4868
6.000000, 62.302, -79.2960
6.080000, 62.549, -80.0195
6.150000, 62.756, -80.7101
6.220000, 62.953, -81.4600
6.300000, 63.165, -82.3961
6.400000, 63.412, -83.6681
6.500000, 63.635, -85.0034
6.600000, 63.828, -86.3707
6.700000, 63.990, -87.7964
6.800000, 64.123, -89.2639
6.900000, 64.226, -90.6915
7.000000, 64.297, -92.0371
7.100000, 64.337, -93.3329
7.200000, 64.349, -94.5516
7.300000, 64.342, -95.6169
7.400000, 64.315, -96.4930
7.500000, 64.268, -97.1992
7.620000, 64.206, -97.8223
7.750000, 64.153, -98.1724
7.880000, 64.115, -98.1793
8.000000, 64.111, -98.0159
8.120000, 64.157, -97.7858
8.250000, 64.262, -97.4796
8.380000, 64.411, -97.3256
8.500000, 64.585, -97.4691
8.620000, 64.791, -97.8751
8.750000, 65.019, -98.6650
8.850000, 65.184, -99.5698
9.000000, 65.409, -101.3615
9.120000, 65.551, -103.0579
9.250000, 65.650, -105.1359
9.380000, 65.690, -107.4262
9.500000, 65.669, -109.5519
9.620000, 65.586, -111.6234
9.750000, 65.430, -113.7882
9.880000, 65.213, -115.6603
10.000000, 64.961, -117.0016
10.150000, 64.599, -118.1099
10.300000, 64.241, -118.3813
10.440000, 63.934, -117.7526
10.600000, 63.699, -116.2191
10.750000, 63.670, -114.2402
10.900000, 63.824, -112.1668
11.060000, 64.179, -110.6113
11.200000, 64.630, -110.0154
11.380000, 65.277, -110.5945
11.500000, 65.710, -111.8351
11.720000, 66.436, -115.4794
11.800000, 66.657, -117.1923
12.060000, 67.195, -123.7250
12.200000, 67.354, -127.6112
12.410000, 67.409, -133.6686
12.500000, 67.364, -136.2117
12.650000, 67.195, -140.3621
12.800000, 66.907, -144.1959
13.150000, 65.785, -150.7878
13.200000, 65.579, -151.3258
13.400000, 64.672, -152.0198
13.600000, 63.790, -149.8780
13.800000, 63.146, -144.4764
14.000000, 63.064, -136.9869
14.300000, 64.084, -127.0459
14.500000, 65.198, -123.8920
14.750000, 66.627, -123.8345
15.000000, 67.850, -126.8180
15.250000, 68.787, -131.6397
15.500000, 69.436, -137.4207
15.750000, 69.813, -143.6155
16.000000, 69.937, -149.7842
16.250000, 69.833, -155.5588
16.500000, 69.530, -160.6470
16.750000, 69.069, -164.7372
17.000000, 68.509, -167.6193
17.250000, 67.922, -169.2132
17.500000, 67.386, -169.6489
17.750000, 66.956, -169.3199
18.000000, 66.635, -168.6812
18.250000, 66.387, -168.0850
18.500000, 66.154, -167.5897
18.750000, 65.902, -166.9929
19.000000, 65.632, -165.9806
19.250000, 65.398, -164.2949
19.500000, 65.281, -161.9977
19.750000, 65.344, -159.5054
20.000000, 65.598, -157.4756
20.299999, 66.065, -156.3905
20.600000, 66.560, -157.0146
20.900000, 66.954, -159.0346
21.200001, 67.180, -161.8635
21.400000, 67.227, -163.8862
21.799999, 67.102, -167.5410
22.000000, 66.958, -168.9016
22.400000, 66.613, -170.2545
22.700001, 66.415, -170.0570
23.000000, 66.364, -169.2035
23.299999, 66.493, -168.3651
23.600000, 66.764, -168.2278
24.000000, 67.173, -169.7257
24.299999, 67.379, -171.9480
24.700001, 67.382, -175.4376
25.000000, 67.164, -177.5568
25.400000, 66.703, -178.3871
25.799999, 66.382, -176.3920
26.200001, 66.561, -173.2935
26.500000, 67.000, -172.1238
26.900000, 67.667, -173.2866
27.200001, 68.022, -175.7983
27.600000, 68.169, -179.9665
28.000000, 67.975, 176.4785
28.500000, 67.547, 174.5113
29.000000, 67.350, 174.8153
29.500000, 67.500, 174.7990
30.000000, 67.693, 173.0937
30.400000, 67.710, 171.0643
30.700001, 67.633, 169.6464
31.100000, 67.464, 168.2886
31.500000, 67.294, 167.6429
32.000000, 67.165, 167.5103
32.500000, 67.154, 167.5087
33.000000, 67.220, 167.0995
33.500000, 67.278, 166.1270
34.000000, 67.256, 164.9258
34.500000, 67.158, 164.0504
35.000000, 67.066, 163.7167
35.500000, 67.039, 163.5884
36.000000, 67.045, 163.3108
36.500000, 67.040, 162.9915
37.000000, 67.053, 162.8345
37.500000, 67.137, 162.5694
38.200001, 67.285, 161.1708
38.700001, 67.277, 159.7206
39.500000, 67.119, 158.3478
40.000000, 67.102, 158.0233
40.599998, 67.177, 157.0142
41.200001, 67.160, 155.1089
41.799999, 66.954, 153.3914
42.500000, 66.645, 152.9277
43.099998, 66.539, 153.4431
43.700001, 66.611, 153.4619
44.400002, 66.703, 151.9326
45.000000, 66.596, 150.0042
45.500000, 66.371, 148.9060
46.200001, 66.056, 148.8446
46.799999, 65.948, 149.3504
47.500000, 65.930, 149.2757
48.200001, 65.869, 148.7190
48.700001, 65.811, 148.3922
49.400002, 65.755, 147.9457
50.000000, 65.716, 147.3948
50.799999, 65.644, 146.4849
51.500000, 65.558, 145.5873
52.200001, 65.429, 144.8235
53.000000, 65.294, 144.4982
53.799999, 65.267, 144.2020
54.500000, 65.262, 143.4399
55.200001, 65.205, 142.5665
56.000000, 65.132, 141.8005
57.000000, 65.060, 140.7094
58.000000, 64.907, 139.6579
59.000000, 64.750, 139.3473
60.000000, 64.688, 139.1590
60.799999, 64.663, 138.6283
61.500000, 64.616, 137.9462
62.200001, 64.539, 137.2367
63.000000, 64.432, 136.4955
64.000000, 64.286, 135.6865
65.000000, 64.145, 135.0867
66.000000, 64.038, 134.5865
67.000000, 63.946, 134.0975
68.000000, 63.871, 133.7188
69.000000, 63.817, 133.3357
70.000000, 63.762, 132.8260
71.000000, 63.674, 132.3132
72.000000, 63.580, 131.9825
73.000000, 63.501, 131.5410
74.000000, 63.392, 131.0351
75.000000, 63.289, 130.6903
76.199997, 63.182, 130.1692
77.500000, 63.074, 129.7027
78.800003, 62.995, 129.0985
80.000000, 62.916, 128.4609
81.199997, 62.820, 127.8239
82.500000, 62.714, 127.4158
83.800003, 62.630, 127.0286
85.000000, 62.543, 126.7086
86.199997, 62.448, 126.4091
87.500000, 62.339, 126.2084
88.500000, 62.274, 125.9485
90.000000, 62.141, 125.2697
91.199997, 62.026, 124.8873
92.500000, 61.929, 124.4459
93.800003, 61.836, 124.0051
95.000000, 61.761, 123.6270
96.199997, 61.680, 123.2488
97.500000, 61.591, 122.9461
98.800003, 61.510, 122.6793
100.000000, 61.440, 122.4717
101.500000, 61.366, 122.1521
103.000000, 61.273, 121.7542
104.400002, 61.186, 121.4622
106.000000, 61.086, 120.9868
107.500000, 60.978, 120.5925
109.000000, 60.890, 120.3891
110.599998, 60.823, 120.1028
112.000000, 60.750, 119.8409
113.800003, 60.650, 119.5667
115.000000, 60.578, 119.3314
117.199997, 60.444, 119.0260
118.000000, 60.410, 118.9320
120.599998, 60.300, 118.3768
122.000000, 60.220, 118.1876
124.099998, 60.118, 117.9803
125.000000, 60.072, 117.7890
126.500000, 59.981, 117.4545
128.000000, 59.888, 117.2846
131.500000, 59.773, 116.9338
132.000000, 59.753, 116.8260
134.000000, 59.641, 116.5505
136.000000, 59.543, 116.6367
138.000000, 59.497, 116.4480
140.000000, 59.422, 115.9184
143.000000, 59.255, 115.5730
145.000000, 59.159, 115.5941
147.500000, 59.080, 115.4897
150.000000, 59.006, 115.0967
152.500000, 58.921, 114.8683
155.000000, 58.840, 114.6319
157.500000, 58.729, 114.4134
160.000000, 58.610, 114.2665
162.500000, 58.501, 114.1594
165.000000, 58.409, 113.9705
167.500000, 58.346, 113.9802
170.000000, 58.303, 113.9370
172.500000, 58.220, 114.0917
175.000000, 58.156, 114.3691
177.500000, 58.098, 114.2461
180.000000, 58.021, 114.2764
182.500000, 57.946, 114.4480
185.000000, 57.866, 114.8716
187.500000, 57.883, 115.4465
190.000000, 57.962, 115.4449
192.500000, 58.011, 115.5212
195.000000, 58.098, 115.7927
197.500000, 58.219, 115.5804
200.000000, 58.295, 115.0236
203.000000, 58.300, 114.3874
206.000000, 58.267, 113.5742
209.000000, 58.247, 112.7034
212.000000, 58.216, 112.1424
214.000000, 58.186, 111.9111
218.000000, 58.120, 111.3258
220.000000, 58.099, 111.0552
224.000000, 58.051, 110.5745
227.000000, 58.001, 110.2815
230.000000, 57.967, 110.0007
233.000000, 57.941, 109.7360
236.000000, 57.914, 109.5311
240.000000, 57.886, 109.2333
243.000000, 57.864, 109.0114
247.000000, 57.836, 108.7057
250.000000, 57.818, 108.4290
254.000000, 57.796, 108.0750
258.000000, 57.779, 107.7343
262.000000, 57.765, 107.4229
265.000000, 57.753, 107.2512
269.000000, 57.736, 107.0510
272.000000, 57.728, 106.8291
276.000000, 57.730, 106.5272
280.000000, 57.734, 106.2426
285.000000, 57.736, 105.8020
290.000000, 57.748, 105.4890
295.000000, 57.753, 105.2145
300.000000, 57.751, 104.8384
304.000000, 57.750, 104.5638
307.000000, 57.754, 104.3187
311.000000, 57.770, 103.9902
315.000000, 57.797, 103.6568
320.000000, 57.825, 103.2742
325.000000, 57.842, 102.9193
330.000000, 57.861, 102.5538
335.000000, 57.881, 102.1663
340.000000, 57.911, 101.7842
345.000000, 57.939, 101.4474
350.000000, 57.966, 101.1065
355.000000, 58.002, 100.6860
360.000000, 58.041, 100.3158
365.000000, 58.076, 99.9846
370.000000, 58.116, 99.5815
375.000000, 58.161, 99.1159
382.000000, 58.229, 98.5093
387.000000, 58.275, 98.1378
395.000000, 58.350, 97.4161
400.000000, 58.399, 96.9031
406.000000, 58.460, 96.2924
412.000000, 58.519, 95.6467
418.000000, 58.571, 94.9925
425.000000, 58.623, 94.2774
431.000000, 58.665, 93.6870
437.000000, 58.720, 93.0415
444.000000, 58.779, 92.3039
450.000000, 58.822, 91.7510
455.000000, 58.858, 91.2677
462.000000, 58.906, 90.5817
468.000000, 58.941, 89.9763
475.000000, 58.985, 89.3168
482.000000, 59.032, 88.6889
487.000000, 59.070, 88.2262
494.000000, 59.126, 87.5342
500.000000, 59.172, 86.9553
508.000000, 59.236, 86.0699
515.000000, 59.287, 85.2339
522.000000, 59.331, 84.4651
530.000000, 59.380, 83.6198
538.000000, 59.426, 82.7847
545.000000, 59.463, 82.0540
552.000000, 59.499, 81.3164
560.000000, 59.540, 80.5002
570.000000, 59.582, 79.5000
580.000000, 59.618, 78.5005
590.000000, 59.649, 77.5629
600.000000, 59.678, 76.6219
608.000000, 59.701, 75.8762
615.000000, 59.722, 75.2465
622.000000, 59.739, 74.6210
630.000000, 59.756, 73.9095
640.000000, 59.776, 73.0504
650.000000, 59.793, 72.2332
660.000000, 59.806, 71.4258
670.000000, 59.818, 70.6302
680.000000, 59.827, 69.8738
690.000000, 59.831, 69.1693
700.000000, 59.834, 68.4875
710.000000, 59.835, 67.8308
720.000000, 59.835, 67.2115
730.000000, 59.837, 66.6205
740.000000, 59.838, 66.0583
750.000000, 59.837, 65.5140
762.000000, 59.836, 64.8932
775.000000, 59.833, 64.2999
788.000000, 59.831, 63.7670
800.000000, 59.829, 63.3113
812.000000, 59.828, 62.8876
825.000000, 59.832, 62.4649
838.000000, 59.842, 62.0903
850.000000, 59.854, 61.7757
862.000000, 59.868, 61.4887
875.000000, 59.887, 61.2133
885.000000, 59.904, 61.0297
900.000000, 59.933, 60.7923
912.000000, 59.959, 60.6218
925.000000, 59.991, 60.4465
938.000000, 60.029, 60.2915
950.000000, 60.071, 60.1625
962.000000, 60.118, 60.0346
975.000000, 60.174, 59.8937
988.000000, 60.233, 59.7515
1000.000000, 60.291, 59.6201
1015.000000, 60.366, 59.4591
1030.000000, 60.444, 59.2900
1044.000000, 60.519, 59.1163
1060.000000, 60.609, 58.8909
1075.000000, 60.700, 58.6573
1090.000000, 60.794, 58.4014
1106.000000, 60.897, 58.0916
1120.000000, 60.987, 57.7969
1138.000000, 61.102, 57.4076
1150.000000, 61.177, 57.1416
1172.000000, 61.314, 56.6146
1180.000000, 61.363, 56.4083
1206.000000, 61.524, 55.7076
1220.000000, 61.607, 55.3253
1241.000000, 61.727, 54.7437
1250.000000, 61.776, 54.4930
1265.000000, 61.857, 54.0750
1280.000000, 61.935, 53.6547
1315.000000, 62.109, 52.6608
1320.000000, 62.133, 52.5214
1340.000000, 62.227, 51.9810
1360.000000, 62.318, 51.4563
1380.000000, 62.409, 50.9296
1400.000000, 62.501, 50.4091
1430.000000, 62.638, 49.6490
1450.000000, 62.729, 49.1631
1475.000000, 62.843, 48.5698
1500.000000, 62.957, 47.9805
1525.000000, 63.071, 47.4015
1550.000000, 63.184, 46.8390
1575.000000, 63.297, 46.2883
1600.000000, 63.415, 45.7266
1625.000000, 63.535, 45.1545
1650.000000, 63.656, 44.5842
1675.000000, 63.778, 44.0068
1700.000000, 63.902, 43.4098
1725.000000, 64.026, 42.7969
1750.000000, 64.153, 42.1656
1775.000000, 64.278, 41.5140
1800.000000, 64.403, 40.8474
1825.000000, 64.526, 40.1631
1850.000000, 64.648, 39.4511
1875.000000, 64.772, 38.7045
1900.000000, 64.895, 37.9240
1925.000000, 65.016, 37.1141
1950.000000, 65.135, 36.2783
1975.000000, 65.250, 35.4171
2000.000000, 65.363, 34.5273
2030.000000, 65.495, 33.4159
2060.000000, 65.623, 32.2599
2090.000000, 65.744, 31.0760
2120.000000, 65.858, 29.8630
2140.000000, 65.928, 29.0319
2180.000000, 66.057, 27.3199
2200.000000, 66.115, 26.4419
2240.000000, 66.218, 24.6433
2270.000000, 66.283, 23.2679
2300.000000, 66.338, 21.8745
2330.000000, 66.381, 20.4670
2360.000000, 66.409, 19.0616
2400.000000, 66.426, 17.2106
2430.000000, 66.425, 15.8359
2470.000000, 66.407, 14.0336
2500.000000, 66.381, 12.7250
2540.000000, 66.325, 11.0550
2580.000000, 66.248, 9.4828
2620.000000, 66.156, 8.0076
2650.000000, 66.080, 6.9619
2690.000000, 65.972, 5.6644
2720.000000, 65.885, 4.7733
2760.000000, 65.764, 3.6957
2800.000000, 65.639, 2.7360
2850.000000, 65.480, 1.6989
2900.000000, 65.315, 0.8599
2950.000000, 65.147, 0.1957
3000.000000, 64.985, -0.3082
3040.000000, 64.861, -0.6022
3070.000000, 64.773, -0.7698
3110.000000, 64.665, -0.9270
3150.000000, 64.567, -1.0147
3200.000000, 64.456, -1.0515
3250.000000, 64.356, -1.0242
3300.000000, 64.265, -0.9380
3350.000000, 64.179, -0.7980
3400.000000, 64.101, -0.5967
3450.000000, 64.033, -0.3283
3500.000000, 63.978, 0.0060
3550.000000, 63.939, 0.4036
3600.000000, 63.917, 0.8515
3650.000000, 63.913, 1.3248
3700.000000, 63.927, 1.7952
3750.000000, 63.960, 2.2399
3820.000000, 64.035, 2.7770
3870.000000, 64.108, 3.0674
3950.000000, 64.258, 3.2987
4000.000000, 64.367, 3.2693
4060.000000, 64.506, 3.0234
4120.000000, 64.648, 2.5087
4180.000000, 64.783, 1.7009
4250.000000, 64.914, 0.3679
4310.000000, 64.985, -1.1052
4370.000000, 65.004, -2.8466
4440.000000, 64.937, -5.1196
4500.000000, 64.788, -7.1381
4550.000000, 64.587, -8.7444
4620.000000, 64.186, -10.6399
4680.000000, 63.739, -11.6943
4750.000000, 63.126, -11.9328
4820.000000, 62.468, -10.7783
4870.000000, 62.013, -8.9731
4940.000000, 61.475, -5.0692
5000.000000, 61.181, -0.6600
5080.000000, 61.122, 5.9288
5150.000000, 61.395, 11.3663
5220.000000, 61.902, 15.6656
5300.000000, 62.632, 18.7112
5380.000000, 63.381, 19.7874
5450.000000, 63.969, 19.4080
5520.000000, 64.449, 18.1602
5600.000000, 64.849, 16.1089
5700.000000, 65.131, 13.2356
5800.000000, 65.217, 10.6115
5900.000000, 65.167, 8.5861
6000.000000, 65.048, 7.2761
6080.000000, 64.938, 6.7296
6150.000000, 64.848, 6.5768
6220.000000, 64.771, 6.6821
6300.000000, 64.711, 7.0499
6400.000000, 64.691, 7.7544
6500.000000, 64.739, 8.5458
6600.000000, 64.846, 9.1987
6700.000000, 64.974, 9.6483
6800.000000, 65.143, 10.2997
6900.000000, 65.448, 10.6493
7000.000000, 65.801, 9.9513
7100.000000, 66.132, 8.2504
7200.000000, 66.332, 5.5234
7300.000000, 66.311, 2.5853
7400.000000, 66.104, 0.5529
7500.000000, 65.885, 0.2055
7620.000000, 65.941, 1.2789
7750.000000, 66.504, 0.9009
7880.000000, 67.156, -3.6627
8000.000000, 67.397, -10.8199
8120.000000, 67.143, -18.6984
8250.000000, 66.404, -26.1295
8380.000000, 65.387, -31.6583
8500.000000, 64.339, -35.1910
8620.000000, 63.235, -37.5230
8750.000000, 61.980, -38.8157
8850.000000, 60.973, -38.7870
9000.000000, 59.456, -36.7439
9120.000000, 58.321, -33.3828
9250.000000, 57.264, -28.2387
9380.000000, 56.468, -22.1694
9500.000000, 55.969, -16.6002
9620.000000, 55.636, -11.5341
9750.000000, 55.390, -6.7103
9880.000000, 55.201, -2.4792
10000.000000, 55.051, 1.0791
10150.000000, 54.896, 5.3032
10300.000000, 54.798, 9.2737
10440.000000, 54.752, 12.6312
10600.000000, 54.730, 16.0241
10750.000000, 54.725, 18.8232
10900.000000, 54.723, 21.2736
11060.000000, 54.715, 23.5529
11200.000000, 54.693, 25.3776
11380.000000, 54.653, 27.7324
11500.000000, 54.648, 29.3024
11720.000000, 54.686, 31.5654
11800.000000, 54.691, 32.1837
12060.000000, 54.648, 34.0333
12200.000000, 54.608, 35.0713
12410.000000, 54.555, 36.6520
12500.000000, 54.540, 37.3319
12650.000000, 54.528, 38.4562
12800.000000, 54.539, 39.5521
13150.000000, 54.675, 41.8972
13200.000000, 54.707, 42.2035
13400.000000, 54.879, 43.3385
13600.000000, 55.132, 44.2706
13800.000000, 55.494, 44.9108
14000.000000, 55.990, 45.0657
14300.000000, 57.024, 43.7473
14500.000000, 57.922, 41.2028
14750.000000, 59.240, 35.0052
15000.000000, 60.559, 24.2659
15250.000000, 61.469, 8.9191
15500.000000, 61.642, -8.8347
15750.000000, 61.226, -26.3187
16000.000000, 60.458, -43.6278
16250.000000, 59.180, -60.1663
16500.000000, 57.552, -74.1400
16750.000000, 55.928, -85.9054
17000.000000, 54.444, -96.7993
17250.000000, 53.056, -107.7972
17500.000000, 51.676, -119.3375
17750.000000, 50.245, -131.3396
18000.000000, 48.789, -143.6560
18250.000000, 47.411, -156.7441
18500.000000, 46.186, -171.8047
18750.000000, 45.081, 169.7686
19000.000000, 43.969, 146.8469
19250.000000, 42.676, 118.6670
19500.000000, 41.024, 84.6807
19750.000000, 38.978, 44.3556
20000.000000, 37.275, 5.3915
