* Measurement data measured by REW V5.31.3
* Source: USB-C to 3.5mm Headphone Jack Adapter, USB-C to 3.5mm Headphone Jack Adapter, 0, volume: 0.264
* Format: 256k Log Swept Sine, 1 sweep at -12.0 dBFS with no timing reference
* Dated: Feb 24, 2025 12:50:36 AM
* REW Settings:
*  C-weighting compensation: Off
*  Target level: 75.0 dB
* Note: ; 
* Measurement: Symphonium Titan R
* Smoothing: 1/24 octave
* Frequency Step: 1/48 octave
* Start Frequency: 1.000 Hz
*
* Freq(Hz), SPL(dB), Phase(degrees)
1.000000, 66.272, -14.1604
1.015000, 66.373, -14.7814
1.030000, 66.473, -15.4057
1.044000, 66.566, -15.9918
1.060000, 66.671, -16.6659
1.075000, 66.768, -17.3026
1.090000, 66.864, -17.9447
1.106000, 66.965, -18.6376
1.120000, 67.053, -19.2531
1.138000, 67.165, -20.0577
1.150000, 67.239, -20.6015
1.172000, 67.373, -21.6110
1.180000, 67.421, -21.9814
1.206000, 67.576, -23.1949
1.220000, 67.659, -23.8528
1.241000, 67.782, -24.8429
1.250000, 67.834, -25.2678
1.265000, 67.920, -25.9762
1.280000, 68.006, -26.6839
1.315000, 68.203, -28.3277
1.320000, 68.231, -28.5613
1.340000, 68.342, -29.4914
1.360000, 68.451, -30.4137
1.380000, 68.560, -31.3269
1.400000, 68.667, -32.2298
1.430000, 68.827, -33.5626
1.450000, 68.932, -34.4359
1.475000, 69.062, -35.5138
1.500000, 69.190, -36.5867
1.525000, 69.315, -37.6590
1.550000, 69.439, -38.7299
1.575000, 69.561, -39.7980
1.600000, 69.681, -40.8622
1.625000, 69.799, -41.9211
1.650000, 69.916, -42.9737
1.675000, 70.031, -44.0193
1.700000, 70.145, -45.0568
1.725000, 70.258, -46.0856
1.750000, 70.369, -47.1052
1.775000, 70.480, -48.1148
1.800000, 70.590, -49.1144
1.825000, 70.698, -50.1044
1.850000, 70.806, -51.0889
1.875000, 70.912, -52.0729
1.900000, 71.017, -53.0569
1.925000, 71.120, -54.0398
1.950000, 71.223, -55.0200
1.975000, 71.323, -55.9959
2.000000, 71.423, -56.9661
2.030000, 71.541, -58.1211
2.060000, 71.658, -59.2638
2.090000, 71.774, -60.3921
2.120000, 71.889, -61.5043
2.140000, 71.965, -62.2359
2.180000, 72.117, -63.6741
2.200000, 72.192, -64.3812
2.240000, 72.341, -65.7794
2.270000, 72.451, -66.8180
2.300000, 72.560, -67.8481
2.330000, 72.668, -68.8692
2.360000, 72.775, -69.8809
2.400000, 72.916, -71.2140
2.430000, 73.021, -72.2014
2.470000, 73.160, -73.5006
2.500000, 73.263, -74.4615
2.540000, 73.399, -75.7241
2.580000, 73.535, -76.9669
2.620000, 73.669, -78.1942
2.650000, 73.769, -79.1057
2.690000, 73.901, -80.3091
2.720000, 73.999, -81.2028
2.760000, 74.129, -82.3826
2.800000, 74.257, -83.5490
2.850000, 74.414, -84.9887
2.900000, 74.569, -86.4094
2.950000, 74.721, -87.8150
3.000000, 74.870, -89.2126
3.040000, 74.988, -90.3249
3.070000, 75.076, -91.1543
3.110000, 75.191, -92.2520
3.150000, 75.304, -93.3390
3.200000, 75.442, -94.6803
3.250000, 75.575, -96.0006
3.300000, 75.704, -97.3022
3.350000, 75.829, -98.5965
3.400000, 75.951, -99.8893
3.450000, 76.068, -101.1749
3.500000, 76.182, -102.4462
3.550000, 76.290, -103.6961
3.600000, 76.394, -104.9189
3.650000, 76.493, -106.1125
3.700000, 76.586, -107.2868
3.750000, 76.675, -108.4551
3.820000, 76.790, -110.0761
3.870000, 76.866, -111.2115
3.950000, 76.980, -112.9641
4.000000, 77.045, -114.0077
4.060000, 77.117, -115.2093
4.120000, 77.181, -116.3755
4.180000, 77.238, -117.5105
4.250000, 77.298, -118.7836
4.310000, 77.345, -119.8180
4.370000, 77.389, -120.7887
4.440000, 77.437, -121.8375
4.500000, 77.473, -122.6752
4.550000, 77.500, -123.3348
4.620000, 77.536, -124.2021
4.680000, 77.567, -124.8936
4.750000, 77.607, -125.6371
4.820000, 77.650, -126.3036
4.870000, 77.682, -126.7313
4.940000, 77.728, -127.2756
5.000000, 77.770, -127.7071
5.080000, 77.834, -128.2555
5.150000, 77.898, -128.7171
5.220000, 77.970, -129.1458
5.300000, 78.060, -129.6010
5.380000, 78.157, -130.0543
5.450000, 78.246, -130.4794
5.520000, 78.339, -130.9430
5.600000, 78.453, -131.5046
5.700000, 78.602, -132.2496
5.800000, 78.750, -133.0688
5.900000, 78.891, -133.9911
6.000000, 79.027, -135.0150
6.080000, 79.131, -135.8878
6.150000, 79.215, -136.6787
6.220000, 79.291, -137.4920
6.300000, 79.366, -138.4595
6.400000, 79.444, -139.7257
6.500000, 79.506, -141.0072
6.600000, 79.548, -142.2580
6.700000, 79.569, -143.4891
6.800000, 79.571, -144.7032
6.900000, 79.558, -145.8532
7.000000, 79.531, -146.9024
7.100000, 79.490, -147.8601
7.200000, 79.439, -148.7302
7.300000, 79.386, -149.4959
7.400000, 79.333, -150.1395
7.500000, 79.279, -150.6663
7.620000, 79.222, -151.1857
7.750000, 79.181, -151.6421
7.880000, 79.160, -151.9864
8.000000, 79.161, -152.2772
8.120000, 79.181, -152.6071
8.250000, 79.226, -153.0083
8.380000, 79.285, -153.5004
8.500000, 79.347, -154.0797
8.620000, 79.414, -154.7720
8.750000, 79.484, -155.6318
8.850000, 79.531, -156.3713
9.000000, 79.590, -157.5985
9.120000, 79.626, -158.6338
9.250000, 79.649, -159.7789
9.380000, 79.657, -160.9422
9.500000, 79.656, -161.9941
9.620000, 79.646, -163.0005
9.750000, 79.629, -164.0439
9.880000, 79.612, -165.0319
10.000000, 79.598, -165.8863
10.150000, 79.587, -166.8953
10.300000, 79.588, -167.8788
10.440000, 79.602, -168.7863
10.600000, 79.629, -169.8550
10.750000, 79.663, -170.9265
10.900000, 79.702, -172.0682
11.060000, 79.738, -173.3769
11.200000, 79.763, -174.5957
11.380000, 79.776, -176.2114
11.500000, 79.770, -177.3048
11.720000, 79.728, -179.2583
11.800000, 79.702, -179.9268
12.060000, 79.585, 178.1207
12.200000, 79.509, 177.2678
12.410000, 79.391, 176.2745
12.500000, 79.344, 175.9575
12.650000, 79.276, 175.5699
12.800000, 79.225, 175.3177
13.150000, 79.202, 175.0333
13.200000, 79.209, 174.9969
13.400000, 79.263, 174.8024
13.600000, 79.341, 174.4620
13.800000, 79.429, 173.9292
14.000000, 79.510, 173.2159
14.300000, 79.592, 171.9027
14.500000, 79.609, 170.9754
14.750000, 79.589, 169.9043
15.000000, 79.535, 169.0513
15.250000, 79.469, 168.5008
15.500000, 79.418, 168.2361
15.750000, 79.405, 168.1584
16.000000, 79.442, 168.0960
16.250000, 79.522, 167.8601
16.500000, 79.628, 167.3184
16.750000, 79.732, 166.4111
17.000000, 79.809, 165.1796
17.250000, 79.840, 163.7286
17.500000, 79.817, 162.1998
17.750000, 79.744, 160.7434
18.000000, 79.636, 159.4716
18.250000, 79.512, 158.4490
18.500000, 79.395, 157.6661
18.750000, 79.302, 157.0481
19.000000, 79.240, 156.4859
19.250000, 79.206, 155.8647
19.500000, 79.187, 155.1192
19.750000, 79.167, 154.2373
20.000000, 79.136, 153.2599
20.299999, 79.075, 152.0640
20.600000, 78.993, 150.9606
20.900000, 78.904, 150.0305
21.200001, 78.826, 149.2816
21.400000, 78.788, 148.8547
21.799999, 78.749, 148.0526
22.000000, 78.748, 147.6197
22.400000, 78.769, 146.5786
22.700001, 78.789, 145.5966
23.000000, 78.794, 144.4416
23.299999, 78.770, 143.1654
23.600000, 78.703, 141.8777
24.000000, 78.545, 140.4254
24.299999, 78.395, 139.7458
24.700001, 78.224, 139.5081
25.000000, 78.173, 139.6512
25.400000, 78.241, 139.6410
25.799999, 78.396, 138.7179
26.200001, 78.493, 136.7271
26.500000, 78.453, 134.8682
26.900000, 78.222, 132.6809
27.200001, 77.961, 131.7802
27.600000, 77.641, 131.9016
28.000000, 77.527, 132.9577
28.500000, 77.715, 133.5652
29.000000, 77.973, 132.0604
29.500000, 78.008, 129.3146
30.000000, 77.809, 127.0056
30.400000, 77.615, 126.0211
30.700001, 77.516, 125.6171
31.100000, 77.456, 125.0515
31.500000, 77.415, 124.1488
32.000000, 77.291, 122.8310
32.500000, 77.107, 122.0277
33.000000, 77.007, 121.7887
33.500000, 77.038, 121.1805
34.000000, 77.055, 119.6025
34.500000, 76.898, 117.6959
35.000000, 76.587, 116.7484
35.500000, 76.337, 117.3050
36.000000, 76.345, 118.3198
36.500000, 76.541, 118.1984
37.000000, 76.688, 116.6059
37.500000, 76.642, 114.5010
38.200001, 76.359, 112.6491
38.700001, 76.199, 112.2747
39.500000, 76.119, 111.5681
40.000000, 76.064, 110.6767
40.599998, 75.942, 109.6454
41.200001, 75.822, 108.8810
41.799999, 75.731, 108.1680
42.500000, 75.640, 107.3116
43.099998, 75.598, 106.4560
43.700001, 75.566, 105.0899
44.400002, 75.391, 103.0119
45.000000, 75.094, 101.8708
45.500000, 74.855, 101.7982
46.200001, 74.701, 102.1656
46.799999, 74.671, 101.8903
47.500000, 74.598, 101.0321
48.200001, 74.516, 100.2039
48.700001, 74.488, 99.4588
49.400002, 74.429, 97.9387
50.000000, 74.302, 96.5429
50.799999, 74.079, 95.3329
51.500000, 73.936, 94.8492
52.200001, 73.863, 94.4593
53.000000, 73.825, 93.7925
53.799999, 73.768, 92.8504
54.500000, 73.663, 92.0969
55.200001, 73.544, 91.6762
56.000000, 73.450, 91.3026
57.000000, 73.335, 90.3414
58.000000, 73.139, 89.1873
59.000000, 72.912, 88.2167
60.000000, 72.695, 87.3547
60.799999, 72.533, 86.6546
61.500000, 72.387, 86.0864
62.200001, 72.249, 85.7033
63.000000, 72.139, 85.4087
64.000000, 72.055, 84.8055
65.000000, 71.965, 83.9931
66.000000, 71.876, 83.1519
67.000000, 71.768, 82.0784
68.000000, 71.593, 81.1240
69.000000, 71.422, 80.5688
70.000000, 71.274, 79.9109
71.000000, 71.098, 79.2146
72.000000, 70.924, 78.6830
73.000000, 70.773, 78.1330
74.000000, 70.639, 77.5232
75.000000, 70.512, 76.8384
76.199997, 70.356, 76.1150
77.500000, 70.210, 75.5279
78.800003, 70.076, 74.9067
80.000000, 69.938, 74.2919
81.199997, 69.795, 73.6295
82.500000, 69.631, 72.7292
83.800003, 69.443, 71.8001
85.000000, 69.276, 71.1854
86.199997, 69.150, 70.5983
87.500000, 69.003, 69.8769
88.500000, 68.882, 69.4810
90.000000, 68.734, 68.9786
91.199997, 68.630, 68.3643
92.500000, 68.489, 67.6560
93.800003, 68.361, 67.1844
95.000000, 68.258, 66.6225
96.199997, 68.124, 66.1068
97.500000, 67.984, 65.8452
98.800003, 67.877, 65.4926
100.000000, 67.772, 64.9883
101.500000, 67.624, 64.3121
103.000000, 67.454, 63.7571
104.400002, 67.311, 63.5130
106.000000, 67.188, 63.0782
107.500000, 67.066, 62.3170
109.000000, 66.902, 61.4693
110.599998, 66.723, 60.9026
112.000000, 66.612, 60.6224
113.800003, 66.501, 60.0397
115.000000, 66.403, 59.6291
117.199997, 66.200, 59.1522
118.000000, 66.134, 59.0086
120.599998, 65.959, 58.2942
122.000000, 65.862, 57.7737
124.099998, 65.711, 57.2014
125.000000, 65.646, 57.0193
126.500000, 65.540, 56.7734
128.000000, 65.440, 56.5000
131.500000, 65.208, 55.6439
132.000000, 65.183, 55.5354
134.000000, 65.095, 55.0211
136.000000, 64.987, 54.5193
138.000000, 64.856, 54.1826
140.000000, 64.727, 53.7525
143.000000, 64.505, 53.0418
145.000000, 64.398, 52.7225
147.500000, 64.283, 52.1061
150.000000, 64.150, 51.5820
152.500000, 64.021, 51.3085
155.000000, 63.931, 51.0643
157.500000, 63.825, 50.4356
160.000000, 63.681, 49.9561
162.500000, 63.544, 49.7225
165.000000, 63.427, 49.4233
167.500000, 63.288, 48.8491
170.000000, 63.148, 48.4265
172.500000, 63.080, 48.0195
175.000000, 63.023, 47.3383
177.500000, 62.920, 46.8841
180.000000, 62.810, 46.8716
182.500000, 62.719, 46.6721
185.000000, 62.622, 46.2978
187.500000, 62.556, 46.0137
190.000000, 62.510, 45.6139
192.500000, 62.413, 44.9125
195.000000, 62.262, 44.4010
197.500000, 62.156, 44.2142
200.000000, 62.102, 44.1163
203.000000, 62.049, 43.8857
206.000000, 61.960, 43.4486
209.000000, 61.895, 43.0940
212.000000, 61.853, 42.6813
214.000000, 61.799, 42.4486
218.000000, 61.634, 42.2880
220.000000, 61.571, 42.1747
224.000000, 61.488, 41.6307
227.000000, 61.421, 41.2685
230.000000, 61.335, 41.0226
233.000000, 61.259, 40.8235
236.000000, 61.198, 40.6655
240.000000, 61.112, 40.3282
243.000000, 61.035, 39.9146
247.000000, 60.946, 39.6186
250.000000, 60.899, 39.5172
254.000000, 60.863, 39.2318
258.000000, 60.823, 38.9450
262.000000, 60.775, 38.8480
265.000000, 60.733, 38.6994
269.000000, 60.650, 38.2071
272.000000, 60.589, 37.9849
276.000000, 60.524, 37.8039
280.000000, 60.468, 37.2287
285.000000, 60.481, 36.7431
290.000000, 60.475, 36.8240
295.000000, 60.367, 37.2838
300.000000, 60.230, 37.5724
304.000000, 60.197, 36.9455
307.000000, 60.217, 36.3335
311.000000, 60.216, 35.9893
315.000000, 60.167, 35.6682
320.000000, 60.055, 35.3148
325.000000, 59.984, 35.2662
330.000000, 59.968, 35.0716
335.000000, 59.915, 34.9009
340.000000, 59.835, 35.1012
345.000000, 59.763, 35.1323
350.000000, 59.721, 34.1909
355.000000, 59.694, 33.3395
360.000000, 59.663, 33.2565
365.000000, 59.646, 33.2821
370.000000, 59.616, 33.2585
375.000000, 59.585, 33.2323
382.000000, 59.552, 32.9738
387.000000, 59.511, 32.8075
395.000000, 59.503, 32.8888
400.000000, 59.505, 32.9937
406.000000, 59.458, 32.7941
412.000000, 59.394, 32.3878
418.000000, 59.344, 31.9921
425.000000, 59.329, 31.8030
431.000000, 59.333, 31.7126
437.000000, 59.305, 31.6233
444.000000, 59.274, 31.7141
450.000000, 59.234, 31.6252
455.000000, 59.205, 31.5714
462.000000, 59.200, 31.6386
468.000000, 59.201, 31.3785
475.000000, 59.164, 31.3229
482.000000, 59.135, 31.4915
487.000000, 59.129, 31.4488
494.000000, 59.088, 31.3077
500.000000, 59.053, 31.1423
508.000000, 59.038, 31.0498
515.000000, 59.045, 31.0753
522.000000, 59.057, 31.0354
530.000000, 59.046, 31.0107
538.000000, 59.004, 31.1480
545.000000, 58.953, 31.2573
552.000000, 58.945, 31.2543
560.000000, 58.957, 31.1694
570.000000, 58.951, 31.2836
580.000000, 58.904, 31.3994
590.000000, 58.878, 31.4698
600.000000, 58.858, 31.6866
608.000000, 58.839, 31.8638
615.000000, 58.840, 31.9995
622.000000, 58.843, 32.2187
630.000000, 58.852, 32.5024
640.000000, 58.877, 32.7948
650.000000, 58.907, 32.9559
660.000000, 58.923, 33.0320
670.000000, 58.933, 33.1501
680.000000, 58.945, 33.2554
690.000000, 58.958, 33.4177
700.000000, 58.963, 33.5631
710.000000, 58.960, 33.7838
720.000000, 58.954, 34.0653
730.000000, 58.959, 34.2957
740.000000, 58.972, 34.5597
750.000000, 58.988, 34.8342
762.000000, 59.011, 35.1331
775.000000, 59.032, 35.4789
788.000000, 59.057, 35.9135
800.000000, 59.085, 36.3464
812.000000, 59.115, 36.7788
825.000000, 59.155, 37.2239
838.000000, 59.196, 37.6906
850.000000, 59.235, 38.1613
862.000000, 59.279, 38.6189
875.000000, 59.335, 39.1048
885.000000, 59.382, 39.4760
900.000000, 59.458, 40.0631
912.000000, 59.528, 40.5046
925.000000, 59.610, 40.9510
938.000000, 59.698, 41.4052
950.000000, 59.783, 41.8369
962.000000, 59.872, 42.2631
975.000000, 59.975, 42.6961
988.000000, 60.083, 43.0664
1000.000000, 60.184, 43.3773
1015.000000, 60.316, 43.7450
1030.000000, 60.450, 44.1011
1044.000000, 60.575, 44.3851
1060.000000, 60.722, 44.6335
1075.000000, 60.863, 44.8167
1090.000000, 61.005, 44.9678
1106.000000, 61.155, 45.0741
1120.000000, 61.288, 45.1111
1138.000000, 61.460, 45.1003
1150.000000, 61.573, 45.0620
1172.000000, 61.774, 44.9154
1180.000000, 61.845, 44.8401
1206.000000, 62.066, 44.5713
1220.000000, 62.180, 44.3985
1241.000000, 62.348, 44.0885
1250.000000, 62.417, 43.9414
1265.000000, 62.526, 43.6842
1280.000000, 62.630, 43.4240
1315.000000, 62.858, 42.8135
1320.000000, 62.890, 42.7223
1340.000000, 63.012, 42.3457
1360.000000, 63.129, 41.9777
1380.000000, 63.238, 41.6290
1400.000000, 63.340, 41.2889
1430.000000, 63.488, 40.7699
1450.000000, 63.583, 40.4360
1475.000000, 63.700, 40.0422
1500.000000, 63.815, 39.6706
1525.000000, 63.928, 39.3004
1550.000000, 64.039, 38.9449
1575.000000, 64.150, 38.6010
1600.000000, 64.261, 38.2596
1625.000000, 64.370, 37.9364
1650.000000, 64.477, 37.6338
1675.000000, 64.584, 37.3198
1700.000000, 64.692, 37.0027
1725.000000, 64.801, 36.7110
1750.000000, 64.910, 36.4228
1775.000000, 65.023, 36.1053
1800.000000, 65.136, 35.7498
1825.000000, 65.249, 35.3970
1850.000000, 65.363, 35.0285
1875.000000, 65.475, 34.6448
1900.000000, 65.586, 34.2843
1925.000000, 65.698, 33.9213
1950.000000, 65.808, 33.5291
1975.000000, 65.917, 33.1162
2000.000000, 66.024, 32.6764
2030.000000, 66.153, 32.1246
2060.000000, 66.282, 31.5402
2090.000000, 66.411, 30.9267
2120.000000, 66.541, 30.2845
2140.000000, 66.628, 29.8362
2180.000000, 66.798, 28.9012
2200.000000, 66.880, 28.4182
2240.000000, 67.037, 27.4198
2270.000000, 67.148, 26.6235
2300.000000, 67.254, 25.7943
2330.000000, 67.357, 24.9386
2360.000000, 67.455, 24.0503
2400.000000, 67.578, 22.8245
2430.000000, 67.662, 21.8835
2470.000000, 67.764, 20.6052
2500.000000, 67.833, 19.6217
2540.000000, 67.914, 18.2844
2580.000000, 67.983, 16.9335
2620.000000, 68.042, 15.5521
2650.000000, 68.079, 14.5032
2690.000000, 68.117, 13.1112
2720.000000, 68.136, 12.0658
2760.000000, 68.153, 10.6702
2800.000000, 68.158, 9.2921
2850.000000, 68.144, 7.6165
2900.000000, 68.110, 6.0071
2950.000000, 68.065, 4.4313
3000.000000, 68.006, 2.9000
3040.000000, 67.947, 1.7238
3070.000000, 67.896, 0.8645
3110.000000, 67.823, -0.2546
3150.000000, 67.745, -1.3413
3200.000000, 67.639, -2.6420
3250.000000, 67.522, -3.8706
3300.000000, 67.397, -5.0490
3350.000000, 67.263, -6.1818
3400.000000, 67.115, -7.2522
3450.000000, 66.955, -8.2643
3500.000000, 66.785, -9.2260
3550.000000, 66.604, -10.1338
3600.000000, 66.413, -10.9860
3650.000000, 66.213, -11.7842
3700.000000, 66.002, -12.5198
3750.000000, 65.776, -13.1804
3820.000000, 65.426, -13.9503
3870.000000, 65.146, -14.3553
3950.000000, 64.640, -14.6472
4000.000000, 64.284, -14.5143
4060.000000, 63.822, -13.9073
4120.000000, 63.329, -12.6536
4180.000000, 62.822, -10.5173
4250.000000, 62.275, -6.6528
4310.000000, 61.930, -2.0627
4370.000000, 61.793, 3.4918
4440.000000, 61.987, 10.3347
4500.000000, 62.459, 15.5240
4550.000000, 63.014, 18.8113
4620.000000, 63.912, 21.4604
4680.000000, 64.686, 22.0025
4750.000000, 65.500, 20.9960
4820.000000, 66.167, 18.7118
4870.000000, 66.543, 16.5659
4940.000000, 66.928, 13.1472
5000.000000, 67.133, 10.0518
5080.000000, 67.248, 5.9761
5150.000000, 67.224, 2.6346
5220.000000, 67.108, -0.3844
5300.000000, 66.886, -3.3661
5380.000000, 66.597, -5.8345
5450.000000, 66.308, -7.5869
5520.000000, 65.998, -8.9836
5600.000000, 65.628, -10.1772
5700.000000, 65.155, -11.1250
5800.000000, 64.684, -11.5387
5900.000000, 64.224, -11.4771
6000.000000, 63.781, -10.9659
6080.000000, 63.440, -10.2444
6150.000000, 63.155, -9.3912
6220.000000, 62.885, -8.3411
6300.000000, 62.600, -6.9169
6400.000000, 62.290, -4.8691
6500.000000, 62.039, -2.6100
6600.000000, 61.847, -0.2230
6700.000000, 61.710, 2.2288
6800.000000, 61.629, 4.7125
6900.000000, 61.609, 7.1656
7000.000000, 61.654, 9.4943
7100.000000, 61.760, 11.5936
7200.000000, 61.923, 13.3680
7300.000000, 62.129, 14.7173
7400.000000, 62.360, 15.5487
7500.000000, 62.590, 15.8181
7620.000000, 62.831, 15.4720
7750.000000, 63.028, 14.4714
7880.000000, 63.140, 12.6255
8000.000000, 63.053, 10.2255
8120.000000, 62.717, 8.2194
8250.000000, 62.185, 7.6522
8380.000000, 61.691, 8.9287
8500.000000, 61.399, 11.0473
8620.000000, 61.284, 13.2091
8750.000000, 61.292, 14.9740
8850.000000, 61.345, 15.8296
9000.000000, 61.435, 16.1434
9120.000000, 61.439, 15.7159
9250.000000, 61.345, 15.0322
9380.000000, 61.160, 14.4514
9500.000000, 60.929, 14.1852
9620.000000, 60.665, 14.2626
9750.000000, 60.366, 14.7657
9880.000000, 60.081, 15.6818
10000.000000, 59.848, 16.8379
10150.000000, 59.612, 18.6021
10300.000000, 59.448, 20.5891
10440.000000, 59.369, 22.5040
10600.000000, 59.369, 24.6007
10750.000000, 59.449, 26.3459
10900.000000, 59.598, 27.8316
11060.000000, 59.858, 29.0930
11200.000000, 60.190, 29.5491
11380.000000, 60.679, 28.6565
11500.000000, 60.989, 27.1867
11720.000000, 61.452, 22.9277
11800.000000, 61.569, 20.9402
12060.000000, 61.698, 13.4297
12200.000000, 61.601, 9.1383
12410.000000, 61.269, 3.0273
12500.000000, 61.079, 0.6360
12650.000000, 60.734, -3.0143
12800.000000, 60.387, -6.3253
13150.000000, 59.718, -13.9285
13200.000000, 59.641, -15.1490
13400.000000, 59.347, -20.7400
13600.000000, 58.991, -27.6933
13800.000000, 58.443, -35.8258
14000.000000, 57.602, -44.4439
14300.000000, 55.777, -56.2540
14500.000000, 54.306, -62.3584
14750.000000, 52.380, -67.6715
15000.000000, 50.527, -70.8094
15250.000000, 48.855, -72.5201
15500.000000, 47.416, -73.5397
15750.000000, 46.210, -74.5604
16000.000000, 45.178, -76.0715
16250.000000, 44.240, -77.8931
16500.000000, 43.463, -79.7900
16750.000000, 42.938, -82.3975
17000.000000, 42.631, -86.3581
17250.000000, 42.496, -91.9634
17500.000000, 42.542, -99.6200
17750.000000, 42.810, -109.9448
18000.000000, 43.329, -124.0902
18250.000000, 44.023, -143.7203
18500.000000, 44.590, -170.3357
18750.000000, 44.489, 155.9340
19000.000000, 43.260, 117.0134
19250.000000, 40.834, 75.6302
19500.000000, 37.440, 32.8495
19750.000000, 33.407, -12.6017
20000.000000, 29.896, -56.0900
