* Measurement data measured by REW V5.31.3
* Source: USB-C to 3.5mm Headphone Jack Adapter, USB-C to 3.5mm Headphone Jack Adapter, 0, volume: 0.264
* Format: 256k Log Swept Sine, 1 sweep at -12.0 dBFS with no timing reference
* Dated: Feb 24, 2025 1:02:29 AM
* REW Settings:
*  C-weighting compensation: Off
*  Target level: 75.0 dB
* Note: ; 
* Measurement: Symphonium Helios R
* Smoothing: 1/24 octave
* Frequency Step: 1/48 octave
* Start Frequency: 1.000 Hz
*
* Freq(Hz), SPL(dB), Phase(degrees)
1.000000, 42.689, 0.0540
1.015000, 42.727, 0.3078
1.030000, 42.768, 0.5562
1.044000, 42.809, 0.7822
1.060000, 42.860, 1.0322
1.075000, 42.910, 1.2575
1.090000, 42.964, 1.4737
1.106000, 43.026, 1.6986
1.120000, 43.084, 1.8991
1.138000, 43.163, 2.1663
1.150000, 43.219, 2.3493
1.172000, 43.327, 2.6904
1.180000, 43.368, 2.8151
1.206000, 43.508, 3.2180
1.220000, 43.587, 3.4306
1.241000, 43.709, 3.7396
1.250000, 43.763, 3.8672
1.265000, 43.855, 4.0723
1.280000, 43.948, 4.2663
1.315000, 44.174, 4.6674
1.320000, 44.207, 4.7181
1.340000, 44.339, 4.9022
1.360000, 44.473, 5.0545
1.380000, 44.609, 5.1724
1.400000, 44.745, 5.2537
1.430000, 44.950, 5.3022
1.450000, 45.087, 5.2840
1.475000, 45.257, 5.2123
1.500000, 45.432, 5.1116
1.525000, 45.612, 4.9926
1.550000, 45.797, 4.8538
1.575000, 45.986, 4.6922
1.600000, 46.177, 4.5053
1.625000, 46.371, 4.2905
1.650000, 46.566, 4.0457
1.675000, 46.762, 3.7688
1.700000, 46.957, 3.4579
1.725000, 47.151, 3.1114
1.750000, 47.343, 2.7276
1.775000, 47.532, 2.3050
1.800000, 47.717, 1.8421
1.825000, 47.898, 1.3387
1.850000, 48.076, 0.7990
1.875000, 48.253, 0.2308
1.900000, 48.428, -0.3606
1.925000, 48.603, -0.9721
1.950000, 48.777, -1.6011
1.975000, 48.949, -2.2455
2.000000, 49.119, -2.9034
2.030000, 49.320, -3.7090
2.060000, 49.519, -4.5302
2.090000, 49.713, -5.3659
2.120000, 49.904, -6.2155
2.140000, 50.029, -6.7896
2.180000, 50.271, -7.9575
2.200000, 50.389, -8.5539
2.240000, 50.619, -9.7828
2.270000, 50.787, -10.7360
2.300000, 50.951, -11.7094
2.330000, 51.112, -12.6959
2.360000, 51.268, -13.6894
2.400000, 51.470, -15.0155
2.430000, 51.617, -16.0051
2.470000, 51.808, -17.3104
2.500000, 51.946, -18.2748
2.540000, 52.125, -19.5382
2.580000, 52.296, -20.7865
2.620000, 52.460, -22.0502
2.650000, 52.578, -23.0122
2.690000, 52.728, -24.3040
2.720000, 52.837, -25.2719
2.760000, 52.976, -26.5493
2.800000, 53.110, -27.7998
2.850000, 53.271, -29.3056
2.900000, 53.425, -30.7291
2.950000, 53.572, -32.0721
3.000000, 53.708, -33.3777
3.040000, 53.811, -34.4061
3.070000, 53.884, -35.1647
3.110000, 53.978, -36.1527
3.150000, 54.069, -37.1061
3.200000, 54.182, -38.2357
3.250000, 54.296, -39.2801
3.300000, 54.412, -40.2262
3.350000, 54.525, -41.0795
3.400000, 54.635, -41.8569
3.450000, 54.744, -42.5706
3.500000, 54.854, -43.2291
3.550000, 54.969, -43.8389
3.600000, 55.094, -44.4045
3.650000, 55.230, -44.9242
3.700000, 55.377, -45.3788
3.750000, 55.532, -45.7528
3.820000, 55.764, -46.1818
3.870000, 55.939, -46.4651
3.950000, 56.239, -46.9622
4.000000, 56.440, -47.3345
4.060000, 56.697, -47.8313
4.120000, 56.973, -48.3232
4.180000, 57.265, -48.8199
4.250000, 57.619, -49.4712
4.310000, 57.928, -50.1461
4.370000, 58.237, -50.9644
4.440000, 58.599, -52.0845
4.500000, 58.916, -53.1299
4.550000, 59.183, -54.0505
4.620000, 59.554, -55.4274
4.680000, 59.865, -56.7063
4.750000, 60.214, -58.3362
4.820000, 60.547, -60.1210
4.870000, 60.779, -61.4734
4.940000, 61.093, -63.4417
5.000000, 61.350, -65.1763
5.080000, 61.669, -67.5412
5.150000, 61.924, -69.6787
5.220000, 62.158, -71.9222
5.300000, 62.401, -74.5855
5.380000, 62.616, -77.2710
5.450000, 62.778, -79.5886
5.520000, 62.916, -81.8874
5.600000, 63.043, -84.5753
5.700000, 63.159, -87.9938
5.800000, 63.224, -91.3043
5.900000, 63.236, -94.4207
6.000000, 63.195, -97.4802
6.080000, 63.126, -99.8689
6.150000, 63.039, -101.8348
6.220000, 62.927, -103.6265
6.300000, 62.767, -105.4748
6.400000, 62.520, -107.5508
6.500000, 62.234, -109.2905
6.600000, 61.923, -110.5330
6.700000, 61.575, -111.1808
6.800000, 61.206, -111.2366
6.900000, 60.865, -110.7030
7.000000, 60.586, -109.5293
7.100000, 60.363, -107.6397
7.200000, 60.213, -105.2041
7.300000, 60.178, -102.5544
7.400000, 60.289, -99.8806
7.500000, 60.530, -97.2742
7.620000, 60.932, -94.6310
7.750000, 61.448, -92.7432
7.880000, 62.044, -91.7859
8.000000, 62.607, -91.6447
8.120000, 63.128, -92.1823
8.250000, 63.647, -93.3946
8.380000, 64.109, -95.0310
8.500000, 64.471, -96.8259
8.620000, 64.774, -98.8649
8.750000, 65.040, -101.1823
8.850000, 65.202, -102.9793
9.000000, 65.377, -105.7227
9.120000, 65.465, -107.8569
9.250000, 65.515, -110.0343
9.380000, 65.520, -112.0913
9.500000, 65.492, -113.8262
9.620000, 65.439, -115.3629
9.750000, 65.355, -116.8153
9.880000, 65.256, -118.0213
10.000000, 65.155, -118.8908
10.150000, 65.023, -119.6565
10.300000, 64.902, -120.0755
10.440000, 64.806, -120.1506
10.600000, 64.732, -119.9293
10.750000, 64.711, -119.4810
10.900000, 64.742, -118.8753
11.060000, 64.842, -118.2067
11.200000, 64.986, -117.6709
11.380000, 65.236, -117.2394
11.500000, 65.439, -117.1716
11.720000, 65.857, -117.6055
11.800000, 66.015, -117.9686
12.060000, 66.521, -119.8463
12.200000, 66.768, -121.2767
12.410000, 67.085, -123.8538
12.500000, 67.195, -125.0756
12.650000, 67.343, -127.2404
12.800000, 67.442, -129.4745
13.150000, 67.484, -134.6007
13.200000, 67.470, -135.2816
13.400000, 67.372, -137.8038
13.600000, 67.224, -139.9015
13.800000, 67.051, -141.4819
14.000000, 66.887, -142.5440
14.300000, 66.717, -143.3109
14.500000, 66.687, -143.5116
14.750000, 66.744, -143.7729
15.000000, 66.881, -144.3353
15.250000, 67.048, -145.3692
15.500000, 67.200, -146.8294
15.750000, 67.306, -148.5660
16.000000, 67.353, -150.3659
16.250000, 67.349, -152.0300
16.500000, 67.315, -153.4305
16.750000, 67.277, -154.5171
17.000000, 67.260, -155.3498
17.250000, 67.277, -156.0484
17.500000, 67.327, -156.7563
17.750000, 67.396, -157.5820
18.000000, 67.465, -158.5597
18.250000, 67.517, -159.6595
18.500000, 67.540, -160.7975
18.750000, 67.534, -161.8770
19.000000, 67.503, -162.8140
19.250000, 67.461, -163.5579
19.500000, 67.419, -164.1075
19.750000, 67.388, -164.4953
20.000000, 67.372, -164.7767
20.299999, 67.372, -165.0464
20.600000, 67.387, -165.2959
20.900000, 67.414, -165.5512
21.200001, 67.451, -165.8317
21.400000, 67.482, -166.0535
21.799999, 67.558, -166.6732
22.000000, 67.597, -167.1138
22.400000, 67.648, -168.3013
22.700001, 67.641, -169.4000
23.000000, 67.580, -170.5410
23.299999, 67.469, -171.5670
23.600000, 67.327, -172.3542
24.000000, 67.142, -173.0052
24.299999, 67.040, -173.3512
24.700001, 66.962, -174.0119
25.000000, 66.921, -174.8564
25.400000, 66.825, -176.4466
25.799999, 66.641, -178.2104
26.200001, 66.386, -179.6257
26.500000, 66.201, 179.7247
26.900000, 66.046, 179.2431
27.200001, 66.028, 178.8182
27.600000, 66.094, 177.6425
28.000000, 66.155, 175.6431
28.500000, 66.082, 172.7442
29.000000, 65.859, 170.8484
29.500000, 65.728, 170.7135
30.000000, 65.906, 171.2367
30.400000, 66.219, 170.9463
30.700001, 66.461, 170.1033
31.100000, 66.709, 168.4308
31.500000, 66.848, 166.6041
32.000000, 66.910, 164.5680
32.500000, 66.872, 162.9075
33.000000, 66.704, 161.9555
33.500000, 66.474, 162.5396
34.000000, 66.452, 164.5815
34.500000, 66.800, 165.9029
35.000000, 67.234, 164.5134
35.500000, 67.359, 161.0847
36.000000, 67.071, 157.8302
36.500000, 66.609, 156.3165
37.000000, 66.285, 155.9246
37.500000, 66.054, 154.9965
38.200001, 65.364, 154.1204
38.700001, 64.830, 157.2782
39.500000, 65.475, 164.5392
40.000000, 66.399, 163.5036
40.599998, 66.993, 157.7275
41.200001, 66.921, 151.5454
41.799999, 66.558, 147.0721
42.500000, 66.041, 143.1041
43.099998, 65.326, 140.9945
43.700001, 64.468, 142.6895
44.400002, 64.208, 148.9823
45.000000, 64.741, 151.6924
45.500000, 65.154, 150.5845
46.200001, 65.213, 147.4182
46.799999, 64.938, 146.2128
47.500000, 64.720, 147.2665
48.200001, 64.829, 148.6126
48.700001, 64.988, 148.6844
49.400002, 65.131, 147.7917
50.000000, 65.138, 146.9485
50.799999, 65.124, 146.3621
51.500000, 65.175, 145.6324
52.200001, 65.158, 144.2009
53.000000, 64.954, 143.0989
53.799999, 64.838, 143.4134
54.500000, 64.930, 143.2299
55.200001, 64.960, 141.9679
56.000000, 64.805, 140.7075
57.000000, 64.549, 140.1335
58.000000, 64.185, 140.4064
59.000000, 63.917, 142.4241
60.000000, 63.939, 143.6362
60.799999, 63.989, 143.1444
61.500000, 63.994, 141.7482
62.200001, 63.886, 139.7927
63.000000, 63.620, 138.0561
64.000000, 63.398, 137.3592
65.000000, 63.373, 136.4723
66.000000, 63.313, 135.7103
67.000000, 63.302, 135.6040
68.000000, 63.273, 135.4844
69.000000, 63.215, 135.8878
70.000000, 63.231, 135.9324
71.000000, 63.168, 135.0888
72.000000, 63.017, 134.2869
73.000000, 62.869, 133.6835
74.000000, 62.753, 133.2505
75.000000, 62.680, 132.8405
76.199997, 62.600, 132.3864
77.500000, 62.515, 131.9433
78.800003, 62.413, 131.4069
80.000000, 62.301, 130.6920
81.199997, 62.178, 130.0605
82.500000, 62.092, 129.4440
83.800003, 62.017, 128.9349
85.000000, 61.965, 128.8213
86.199997, 61.925, 128.7659
87.500000, 61.868, 128.7451
88.500000, 61.823, 128.5246
90.000000, 61.694, 127.8369
91.199997, 61.569, 127.3781
92.500000, 61.457, 126.8890
93.800003, 61.356, 126.5022
95.000000, 61.286, 126.2846
96.199997, 61.228, 126.1907
97.500000, 61.187, 126.0827
98.800003, 61.131, 125.8911
100.000000, 61.077, 125.7043
101.500000, 60.982, 125.3561
103.000000, 60.878, 125.1321
104.400002, 60.809, 124.9511
106.000000, 60.735, 124.3543
107.500000, 60.613, 123.9039
109.000000, 60.508, 123.7503
110.599998, 60.413, 123.6215
112.000000, 60.361, 123.4652
113.800003, 60.277, 122.8871
115.000000, 60.204, 122.6356
117.199997, 60.134, 122.3484
118.000000, 60.114, 122.1435
120.599998, 59.991, 121.6706
122.000000, 59.904, 121.7884
124.099998, 59.806, 121.9690
125.000000, 59.758, 121.9031
126.500000, 59.670, 121.7181
128.000000, 59.594, 121.4694
131.500000, 59.479, 120.8071
132.000000, 59.468, 120.7591
134.000000, 59.421, 120.6475
136.000000, 59.362, 120.5708
138.000000, 59.296, 120.3174
140.000000, 59.231, 119.9001
143.000000, 59.129, 119.3754
145.000000, 59.060, 119.2498
147.500000, 58.969, 119.1691
150.000000, 58.900, 118.8821
152.500000, 58.819, 118.3957
155.000000, 58.733, 118.3014
157.500000, 58.667, 118.3152
160.000000, 58.605, 118.1395
162.500000, 58.550, 117.9198
165.000000, 58.503, 117.7970
167.500000, 58.440, 117.6909
170.000000, 58.359, 117.5653
172.500000, 58.286, 117.4203
175.000000, 58.247, 117.3705
177.500000, 58.240, 117.2055
180.000000, 58.194, 116.9478
182.500000, 58.119, 117.1765
185.000000, 58.068, 117.5308
187.500000, 57.987, 117.4404
190.000000, 57.880, 117.4338
192.500000, 57.816, 117.3421
195.000000, 57.762, 117.1814
197.500000, 57.718, 117.2300
200.000000, 57.725, 117.5650
203.000000, 57.814, 118.3112
206.000000, 57.992, 119.0178
209.000000, 58.123, 118.7985
212.000000, 58.195, 118.4119
214.000000, 58.247, 117.9000
218.000000, 58.298, 116.7134
220.000000, 58.260, 116.0864
224.000000, 58.160, 115.2008
227.000000, 58.168, 114.8347
230.000000, 58.182, 114.3893
233.000000, 58.154, 113.7468
236.000000, 58.124, 113.3014
240.000000, 58.078, 112.8881
243.000000, 58.065, 112.4120
247.000000, 58.054, 112.1292
250.000000, 58.034, 111.8620
254.000000, 58.021, 111.4425
258.000000, 58.000, 111.1122
262.000000, 57.989, 110.8382
265.000000, 57.988, 110.6245
269.000000, 57.975, 110.2859
272.000000, 57.993, 110.0726
276.000000, 57.979, 109.5726
280.000000, 57.990, 109.5157
285.000000, 57.991, 108.6784
290.000000, 57.991, 108.7177
295.000000, 58.061, 107.8867
300.000000, 58.005, 107.3694
304.000000, 58.039, 107.4915
307.000000, 58.084, 107.1003
311.000000, 58.081, 106.4463
315.000000, 58.066, 106.4130
320.000000, 58.178, 106.4646
325.000000, 58.315, 105.3512
330.000000, 58.321, 103.8626
335.000000, 58.249, 102.9643
340.000000, 58.185, 102.6975
345.000000, 58.194, 102.5253
350.000000, 58.247, 102.3392
355.000000, 58.320, 102.1117
360.000000, 58.366, 101.8121
365.000000, 58.418, 101.4857
370.000000, 58.487, 100.9909
375.000000, 58.529, 100.8839
382.000000, 58.506, 100.5605
387.000000, 58.546, 99.1931
395.000000, 58.693, 98.6795
400.000000, 58.650, 98.5027
406.000000, 58.714, 97.5818
412.000000, 58.798, 97.5129
418.000000, 58.871, 96.6730
425.000000, 58.965, 95.9495
431.000000, 59.017, 95.1201
437.000000, 59.063, 94.2871
444.000000, 59.128, 93.3215
450.000000, 59.186, 92.5029
455.000000, 59.219, 91.8843
462.000000, 59.259, 91.1179
468.000000, 59.298, 90.4086
475.000000, 59.348, 89.5356
482.000000, 59.387, 88.6767
487.000000, 59.414, 88.1106
494.000000, 59.450, 87.3435
500.000000, 59.476, 86.6729
508.000000, 59.509, 85.7914
515.000000, 59.542, 85.0419
522.000000, 59.578, 84.3305
530.000000, 59.619, 83.4549
538.000000, 59.656, 82.5477
545.000000, 59.685, 81.8152
552.000000, 59.709, 81.0561
560.000000, 59.733, 80.1584
570.000000, 59.759, 79.1035
580.000000, 59.782, 78.0698
590.000000, 59.804, 77.0356
600.000000, 59.818, 76.0563
608.000000, 59.823, 75.2977
615.000000, 59.829, 74.6436
622.000000, 59.836, 74.0126
630.000000, 59.841, 73.3141
640.000000, 59.844, 72.4576
650.000000, 59.844, 71.6270
660.000000, 59.844, 70.8354
670.000000, 59.840, 70.0783
680.000000, 59.834, 69.3581
690.000000, 59.827, 68.6714
700.000000, 59.821, 68.0167
710.000000, 59.812, 67.3972
720.000000, 59.801, 66.8046
730.000000, 59.791, 66.2427
740.000000, 59.781, 65.7243
750.000000, 59.773, 65.2355
762.000000, 59.763, 64.6830
775.000000, 59.753, 64.1340
788.000000, 59.747, 63.6415
800.000000, 59.740, 63.2274
812.000000, 59.735, 62.8530
825.000000, 59.733, 62.4940
838.000000, 59.733, 62.1766
850.000000, 59.736, 61.9151
862.000000, 59.743, 61.6913
875.000000, 59.756, 61.4869
885.000000, 59.769, 61.3431
900.000000, 59.794, 61.1424
912.000000, 59.820, 61.0127
925.000000, 59.853, 60.8941
938.000000, 59.891, 60.7900
950.000000, 59.932, 60.7027
962.000000, 59.978, 60.6129
975.000000, 60.033, 60.5104
988.000000, 60.092, 60.4126
1000.000000, 60.149, 60.3274
1015.000000, 60.225, 60.2143
1030.000000, 60.306, 60.0813
1044.000000, 60.388, 59.9341
1060.000000, 60.485, 59.7372
1075.000000, 60.578, 59.5333
1090.000000, 60.673, 59.3141
1106.000000, 60.776, 59.0468
1120.000000, 60.868, 58.7849
1138.000000, 60.990, 58.4016
1150.000000, 61.069, 58.1235
1172.000000, 61.209, 57.6027
1180.000000, 61.259, 57.4127
1206.000000, 61.418, 56.7508
1220.000000, 61.501, 56.3557
1241.000000, 61.625, 55.7551
1250.000000, 61.676, 55.5027
1265.000000, 61.758, 55.0829
1280.000000, 61.839, 54.6526
1315.000000, 62.019, 53.6359
1320.000000, 62.044, 53.4918
1340.000000, 62.139, 52.9275
1360.000000, 62.232, 52.3827
1380.000000, 62.322, 51.8357
1400.000000, 62.411, 51.2955
1430.000000, 62.541, 50.5323
1450.000000, 62.628, 50.0330
1475.000000, 62.739, 49.4003
1500.000000, 62.851, 48.7910
1525.000000, 62.963, 48.2045
1550.000000, 63.076, 47.6012
1575.000000, 63.190, 46.9932
1600.000000, 63.302, 46.4265
1625.000000, 63.414, 45.8563
1650.000000, 63.527, 45.2496
1675.000000, 63.642, 44.6534
1700.000000, 63.754, 44.0675
1725.000000, 63.868, 43.4611
1750.000000, 63.985, 42.8330
1775.000000, 64.104, 42.1871
1800.000000, 64.220, 41.5263
1825.000000, 64.335, 40.8600
1850.000000, 64.451, 40.1646
1875.000000, 64.568, 39.4232
1900.000000, 64.684, 38.6661
1925.000000, 64.798, 37.9017
1950.000000, 64.912, 37.1003
1975.000000, 65.026, 36.2537
2000.000000, 65.137, 35.3807
2030.000000, 65.264, 34.3052
2060.000000, 65.385, 33.1807
2090.000000, 65.499, 32.0148
2120.000000, 65.606, 30.8165
2140.000000, 65.672, 29.9917
2180.000000, 65.790, 28.3120
2200.000000, 65.842, 27.4797
2240.000000, 65.936, 25.7925
2270.000000, 66.001, 24.4655
2300.000000, 66.057, 23.1205
2330.000000, 66.100, 21.7838
2360.000000, 66.130, 20.4357
2400.000000, 66.152, 18.6228
2430.000000, 66.154, 17.2889
2470.000000, 66.137, 15.5570
2500.000000, 66.113, 14.2745
2540.000000, 66.065, 12.6210
2580.000000, 65.996, 11.0818
2620.000000, 65.911, 9.6250
2650.000000, 65.840, 8.5895
2690.000000, 65.737, 7.3169
2720.000000, 65.653, 6.4403
2760.000000, 65.534, 5.3687
2800.000000, 65.408, 4.4147
2850.000000, 65.248, 3.3872
2900.000000, 65.089, 2.5283
2950.000000, 64.931, 1.8508
3000.000000, 64.775, 1.3466
3040.000000, 64.660, 1.0375
3070.000000, 64.579, 0.8598
3110.000000, 64.479, 0.6985
3150.000000, 64.386, 0.6090
3200.000000, 64.286, 0.5687
3250.000000, 64.205, 0.5717
3300.000000, 64.138, 0.5862
3350.000000, 64.079, 0.5971
3400.000000, 64.023, 0.6075
3450.000000, 63.971, 0.6317
3500.000000, 63.926, 0.6891
3550.000000, 63.889, 0.8054
3600.000000, 63.863, 0.9689
3650.000000, 63.851, 1.1508
3700.000000, 63.858, 1.3147
3750.000000, 63.882, 1.4351
3820.000000, 63.935, 1.4946
3870.000000, 63.984, 1.4215
3950.000000, 64.077, 1.0443
4000.000000, 64.136, 0.6328
4060.000000, 64.199, -0.0718
4120.000000, 64.248, -1.0186
4180.000000, 64.270, -2.1931
4250.000000, 64.243, -3.8159
4310.000000, 64.160, -5.3615
4370.000000, 64.008, -6.9479
4440.000000, 63.733, -8.6843
4500.000000, 63.412, -9.8926
4550.000000, 63.084, -10.5619
4620.000000, 62.554, -10.7629
4680.000000, 62.060, -10.0509
4750.000000, 61.493, -7.9869
4820.000000, 61.013, -4.5285
4870.000000, 60.774, -1.3075
4940.000000, 60.654, 3.8611
5000.000000, 60.781, 8.3552
5080.000000, 61.250, 13.4575
5150.000000, 61.847, 16.4376
5220.000000, 62.507, 17.7825
5300.000000, 63.219, 17.4711
5380.000000, 63.790, 15.6799
5450.000000, 64.132, 13.3803
5520.000000, 64.324, 10.8120
5600.000000, 64.377, 7.9595
5700.000000, 64.251, 4.9753
5800.000000, 63.994, 2.9054
5900.000000, 63.679, 1.7766
6000.000000, 63.360, 1.4820
6080.000000, 63.127, 1.7325
6150.000000, 62.948, 2.2256
6220.000000, 62.794, 2.9145
6300.000000, 62.650, 3.8707
6400.000000, 62.520, 5.1867
6500.000000, 62.432, 6.5272
6600.000000, 62.355, 7.8782
6700.000000, 62.267, 9.3994
6800.000000, 62.199, 11.5444
6900.000000, 62.259, 14.1873
7000.000000, 62.405, 16.5104
7100.000000, 62.613, 19.1349
7200.000000, 62.993, 21.9126
7300.000000, 63.561, 24.1105
7400.000000, 64.280, 25.2368
7500.000000, 65.097, 24.9884
7620.000000, 66.126, 22.5331
7750.000000, 67.150, 16.9098
7880.000000, 67.864, 8.3511
8000.000000, 68.064, -1.1656
8120.000000, 67.760, -10.6967
8250.000000, 66.967, -19.5266
8380.000000, 65.898, -26.0979
8500.000000, 64.819, -30.2954
8620.000000, 63.724, -33.1216
8750.000000, 62.527, -34.9831
8850.000000, 61.592, -35.6071
9000.000000, 60.190, -34.9550
9120.000000, 59.135, -33.0815
9250.000000, 58.103, -29.9995
9380.000000, 57.221, -26.0370
9500.000000, 56.562, -21.9707
9620.000000, 56.044, -17.8396
9750.000000, 55.618, -13.5366
9880.000000, 55.303, -9.5935
10000.000000, 55.079, -6.3547
10150.000000, 54.850, -2.7798
10300.000000, 54.660, 0.4098
10440.000000, 54.519, 3.0389
10600.000000, 54.384, 5.5789
10750.000000, 54.257, 7.5344
10900.000000, 54.116, 9.1323
11060.000000, 53.937, 10.5343
11200.000000, 53.749, 11.5890
11380.000000, 53.460, 12.8658
11500.000000, 53.240, 13.7900
11720.000000, 52.822, 15.8624
11800.000000, 52.679, 16.6912
12060.000000, 52.233, 19.3090
12200.000000, 51.994, 20.7872
12410.000000, 51.663, 23.2097
12500.000000, 51.537, 24.3058
12650.000000, 51.350, 26.1831
12800.000000, 51.197, 28.0907
13150.000000, 51.002, 32.5033
13200.000000, 50.993, 33.1187
13400.000000, 50.998, 35.5049
13600.000000, 51.087, 37.7123
13800.000000, 51.279, 39.7062
14000.000000, 51.583, 41.3879
14300.000000, 52.303, 42.9861
14500.000000, 53.015, 43.0442
14750.000000, 54.202, 41.0945
15000.000000, 55.652, 35.4183
15250.000000, 57.025, 24.5461
15500.000000, 57.802, 9.6003
15750.000000, 58.047, -5.8351
16000.000000, 58.269, -22.7296
16250.000000, 57.892, -43.2091
16500.000000, 56.309, -62.6282
16750.000000, 53.963, -75.5617
17000.000000, 51.921, -81.5168
17250.000000, 51.069, -85.7519
17500.000000, 51.203, -95.2452
17750.000000, 51.206, -111.5048
18000.000000, 50.573, -130.7286
18250.000000, 49.535, -150.8193
18500.000000, 48.377, -172.3385
18750.000000, 47.183, 163.3411
19000.000000, 45.854, 134.9147
19250.000000, 44.188, 101.5582
19500.000000, 41.961, 63.1081
19750.000000, 39.098, 19.5919
20000.000000, 36.536, -22.0616
