* Measurement data measured by REW V5.31.3
* Source: USB-C to 3.5mm Headphone Jack Adapter, USB-C to 3.5mm Headphone Jack Adapter, 0, volume: 0.264
* Format: 256k Log Swept Sine, 1 sweep at -12.0 dBFS with no timing reference
* Dated: Feb 24, 2025 12:51:46 AM
* REW Settings:
*  C-weighting compensation: Off
*  Target level: 75.0 dB
* Note: ; 
* Measurement: Symphonium Titan L
* Smoothing: 1/24 octave
* Frequency Step: 1/48 octave
* Start Frequency: 1.000 Hz
*
* Freq(Hz), SPL(dB), Phase(degrees)
1.000000, 57.326, -9.7880
1.015000, 57.536, -10.4124
1.030000, 57.745, -11.0378
1.044000, 57.938, -11.6233
1.060000, 58.158, -12.2957
1.075000, 58.361, -12.9303
1.090000, 58.564, -13.5697
1.106000, 58.778, -14.2566
1.120000, 58.963, -14.8592
1.138000, 59.196, -15.6331
1.150000, 59.349, -16.1477
1.172000, 59.625, -17.0867
1.180000, 59.724, -17.4264
1.206000, 60.040, -18.5227
1.220000, 60.206, -19.1074
1.241000, 60.452, -19.9766
1.250000, 60.556, -20.3460
1.265000, 60.728, -20.9573
1.280000, 60.897, -21.5630
1.315000, 61.283, -22.9546
1.320000, 61.338, -23.1508
1.340000, 61.553, -23.9296
1.360000, 61.766, -24.6984
1.380000, 61.975, -25.4574
1.400000, 62.182, -26.2071
1.430000, 62.488, -27.3148
1.450000, 62.690, -28.0428
1.475000, 62.939, -28.9419
1.500000, 63.183, -29.8297
1.525000, 63.421, -30.7067
1.550000, 63.654, -31.5731
1.575000, 63.881, -32.4295
1.600000, 64.104, -33.2764
1.625000, 64.322, -34.1145
1.650000, 64.536, -34.9447
1.675000, 64.746, -35.7675
1.700000, 64.953, -36.5841
1.725000, 65.156, -37.3951
1.750000, 65.355, -38.2015
1.775000, 65.552, -39.0043
1.800000, 65.746, -39.8045
1.825000, 65.938, -40.6031
1.850000, 66.126, -41.4020
1.875000, 66.311, -42.2018
1.900000, 66.492, -43.0017
1.925000, 66.670, -43.7998
1.950000, 66.843, -44.5949
1.975000, 67.014, -45.3857
2.000000, 67.181, -46.1712
2.030000, 67.377, -47.1054
2.060000, 67.570, -48.0295
2.090000, 67.759, -48.9426
2.120000, 67.945, -49.8440
2.140000, 68.067, -50.4383
2.180000, 68.307, -51.6112
2.200000, 68.425, -52.1910
2.240000, 68.656, -53.3449
2.270000, 68.825, -54.2076
2.300000, 68.990, -55.0669
2.330000, 69.152, -55.9212
2.360000, 69.309, -56.7691
2.400000, 69.515, -57.8878
2.430000, 69.666, -58.7165
2.470000, 69.863, -59.8061
2.500000, 70.008, -60.6109
2.540000, 70.197, -61.6671
2.580000, 70.383, -62.7068
2.620000, 70.564, -63.7377
2.650000, 70.696, -64.5069
2.690000, 70.869, -65.5260
2.720000, 70.995, -66.2845
2.760000, 71.159, -67.2864
2.800000, 71.320, -68.2761
2.850000, 71.515, -69.4941
2.900000, 71.707, -70.6892
2.950000, 71.893, -71.8635
3.000000, 72.075, -73.0261
3.040000, 72.215, -73.9496
3.070000, 72.319, -74.6377
3.110000, 72.454, -75.5483
3.150000, 72.586, -76.4499
3.200000, 72.747, -77.5625
3.250000, 72.904, -78.6577
3.300000, 73.058, -79.7358
3.350000, 73.207, -80.8018
3.400000, 73.353, -81.8596
3.450000, 73.494, -82.9089
3.500000, 73.632, -83.9483
3.550000, 73.766, -84.9767
3.600000, 73.896, -85.9931
3.650000, 74.023, -86.9979
3.700000, 74.147, -87.9945
3.750000, 74.267, -88.9871
3.820000, 74.430, -90.3689
3.870000, 74.541, -91.3473
3.950000, 74.713, -92.8918
4.000000, 74.816, -93.8422
4.060000, 74.934, -94.9710
4.120000, 75.048, -96.0954
4.180000, 75.157, -97.2150
4.250000, 75.278, -98.5079
4.310000, 75.376, -99.5980
4.370000, 75.469, -100.6676
4.440000, 75.571, -101.8954
4.500000, 75.653, -102.9406
4.550000, 75.717, -103.8055
4.620000, 75.801, -104.9984
4.680000, 75.868, -105.9963
4.750000, 75.941, -107.1248
4.820000, 76.007, -108.2212
4.870000, 76.050, -108.9916
4.940000, 76.105, -110.0499
5.000000, 76.147, -110.9314
5.080000, 76.199, -112.0579
5.150000, 76.240, -112.9927
5.220000, 76.276, -113.8870
5.300000, 76.311, -114.8651
5.380000, 76.342, -115.7918
5.450000, 76.368, -116.5545
5.520000, 76.393, -117.2679
5.600000, 76.420, -118.0244
5.700000, 76.451, -118.8921
5.800000, 76.485, -119.6845
5.900000, 76.525, -120.4038
6.000000, 76.569, -121.0427
6.080000, 76.608, -121.5086
6.150000, 76.646, -121.8976
6.220000, 76.689, -122.2767
6.300000, 76.744, -122.6937
6.400000, 76.821, -123.1877
6.500000, 76.906, -123.6786
6.600000, 76.998, -124.1963
6.700000, 77.098, -124.7400
6.800000, 77.205, -125.3071
6.900000, 77.315, -125.9159
7.000000, 77.427, -126.5809
7.100000, 77.541, -127.2980
7.200000, 77.655, -128.0618
7.300000, 77.766, -128.8734
7.400000, 77.873, -129.7364
7.500000, 77.975, -130.6476
7.620000, 78.091, -131.7871
7.750000, 78.205, -133.0659
7.880000, 78.306, -134.3929
8.000000, 78.388, -135.6375
8.120000, 78.459, -136.8833
8.250000, 78.523, -138.2386
8.380000, 78.574, -139.5783
8.500000, 78.612, -140.7848
8.620000, 78.640, -141.9657
8.750000, 78.662, -143.2034
8.850000, 78.674, -144.1175
9.000000, 78.685, -145.4299
9.120000, 78.689, -146.4264
9.250000, 78.692, -147.4466
9.380000, 78.693, -148.4086
9.500000, 78.695, -149.2509
9.620000, 78.699, -150.0502
9.750000, 78.706, -150.8725
9.880000, 78.718, -151.6643
10.000000, 78.733, -152.3737
10.150000, 78.759, -153.2405
10.300000, 78.792, -154.1094
10.440000, 78.829, -154.9300
10.600000, 78.876, -155.8930
10.750000, 78.923, -156.8341
10.900000, 78.970, -157.8112
11.060000, 79.017, -158.8945
11.200000, 79.055, -159.8752
11.380000, 79.095, -161.1604
11.500000, 79.116, -162.0267
11.720000, 79.141, -163.6059
11.800000, 79.146, -164.1687
12.060000, 79.150, -165.9371
12.200000, 79.147, -166.8347
12.410000, 79.138, -168.1074
12.500000, 79.135, -168.6265
12.650000, 79.131, -169.4595
12.800000, 79.129, -170.2650
13.150000, 79.140, -172.0988
13.200000, 79.142, -172.3623
13.400000, 79.153, -173.4315
13.600000, 79.162, -174.5286
13.800000, 79.163, -175.6510
14.000000, 79.152, -176.7729
14.300000, 79.112, -178.3913
14.500000, 79.071, -179.3732
14.750000, 79.012, 179.5549
15.000000, 78.957, 178.6711
15.250000, 78.920, 177.9468
15.500000, 78.910, 177.3033
15.750000, 78.929, 176.6462
16.000000, 78.972, 175.8809
16.250000, 79.025, 174.9525
16.500000, 79.075, 173.8538
16.750000, 79.108, 172.6199
17.000000, 79.118, 171.3201
17.250000, 79.105, 170.0264
17.500000, 79.072, 168.8026
17.750000, 79.030, 167.6851
18.000000, 78.987, 166.6758
18.250000, 78.951, 165.7498
18.500000, 78.925, 164.8633
18.750000, 78.907, 163.9758
19.000000, 78.893, 163.0614
19.250000, 78.878, 162.1182
19.500000, 78.856, 161.1675
19.750000, 78.826, 160.2405
20.000000, 78.789, 159.3700
20.299999, 78.745, 158.4244
20.600000, 78.707, 157.5807
20.900000, 78.684, 156.7985
21.200001, 78.674, 156.0215
21.400000, 78.673, 155.4839
21.799999, 78.672, 154.3424
22.000000, 78.669, 153.7459
22.400000, 78.653, 152.5405
22.700001, 78.634, 151.6500
23.000000, 78.612, 150.7735
23.299999, 78.588, 149.8981
23.600000, 78.558, 149.0131
24.000000, 78.502, 147.8345
24.299999, 78.447, 146.9915
24.700001, 78.363, 145.9860
25.000000, 78.301, 145.3287
25.400000, 78.237, 144.5087
25.799999, 78.195, 143.6124
26.200001, 78.153, 142.5362
26.500000, 78.108, 141.6302
26.900000, 78.016, 140.4127
27.200001, 77.930, 139.5860
27.600000, 77.814, 138.6638
28.000000, 77.722, 137.8829
28.500000, 77.650, 136.8589
29.000000, 77.596, 135.5922
29.500000, 77.519, 134.1667
30.000000, 77.417, 132.8006
30.400000, 77.333, 131.8234
30.700001, 77.275, 131.1472
31.100000, 77.206, 130.2916
31.500000, 77.145, 129.4710
32.000000, 77.083, 128.4756
32.500000, 77.038, 127.4379
33.000000, 76.997, 126.2480
33.500000, 76.926, 124.9305
34.000000, 76.807, 123.7153
34.500000, 76.664, 122.8527
35.000000, 76.550, 122.3408
35.500000, 76.496, 121.8836
36.000000, 76.478, 121.1663
36.500000, 76.447, 120.1324
37.000000, 76.373, 118.9742
37.500000, 76.259, 117.9387
38.200001, 76.090, 116.8887
38.700001, 75.996, 116.3030
39.500000, 75.887, 115.2216
40.000000, 75.807, 114.4215
40.599998, 75.685, 113.5665
41.200001, 75.571, 112.9589
41.799999, 75.500, 112.3717
42.500000, 75.432, 111.3475
43.099998, 75.331, 110.3289
43.700001, 75.201, 109.4841
44.400002, 75.068, 108.6824
45.000000, 74.970, 107.9241
45.500000, 74.880, 107.2455
46.200001, 74.750, 106.3608
46.799999, 74.656, 105.5961
47.500000, 74.548, 104.5289
48.200001, 74.410, 103.4107
48.700001, 74.301, 102.7125
49.400002, 74.160, 101.8540
50.000000, 74.051, 101.1258
50.799999, 73.904, 100.1585
51.500000, 73.779, 99.3979
52.200001, 73.674, 98.6720
53.000000, 73.571, 97.6929
53.799999, 73.444, 96.5627
54.500000, 73.305, 95.7106
55.200001, 73.179, 95.0786
56.000000, 73.069, 94.3525
57.000000, 72.922, 93.3040
58.000000, 72.763, 92.4788
59.000000, 72.636, 91.6870
60.000000, 72.503, 90.6703
60.799999, 72.366, 89.7855
61.500000, 72.224, 89.0732
62.200001, 72.074, 88.4773
63.000000, 71.911, 87.9109
64.000000, 71.736, 87.3421
65.000000, 71.626, 86.7007
66.000000, 71.527, 85.6985
67.000000, 71.401, 84.7836
68.000000, 71.290, 84.0207
69.000000, 71.176, 83.3534
70.000000, 71.078, 82.7469
71.000000, 70.958, 81.9222
72.000000, 70.782, 81.1433
73.000000, 70.582, 80.5696
74.000000, 70.400, 80.1646
75.000000, 70.252, 79.5885
76.199997, 70.071, 78.7683
77.500000, 69.912, 77.9412
78.800003, 69.788, 77.1639
80.000000, 69.691, 76.3089
81.199997, 69.554, 75.5244
82.500000, 69.375, 74.9641
83.800003, 69.226, 74.5668
85.000000, 69.062, 73.8084
86.199997, 68.874, 73.4415
87.500000, 68.768, 72.9680
88.500000, 68.695, 72.2274
90.000000, 68.529, 71.1177
91.199997, 68.390, 70.6924
92.500000, 68.276, 70.2834
93.800003, 68.149, 69.8058
95.000000, 68.026, 69.3511
96.199997, 67.895, 68.8651
97.500000, 67.761, 68.3318
98.800003, 67.633, 67.7302
100.000000, 67.517, 67.2036
101.500000, 67.380, 66.6029
103.000000, 67.260, 66.0674
104.400002, 67.149, 65.4386
106.000000, 67.003, 64.7809
107.500000, 66.878, 64.2794
109.000000, 66.769, 63.7825
110.599998, 66.654, 63.2202
112.000000, 66.539, 62.7726
113.800003, 66.377, 62.3762
115.000000, 66.270, 62.1440
117.199997, 66.069, 61.7062
118.000000, 66.007, 61.5494
120.599998, 65.840, 60.7919
122.000000, 65.755, 60.3812
124.099998, 65.615, 59.8018
125.000000, 65.545, 59.6194
126.500000, 65.423, 59.2690
128.000000, 65.301, 58.9650
131.500000, 65.094, 57.9541
132.000000, 65.062, 57.8227
134.000000, 64.938, 57.6597
136.000000, 64.856, 57.4557
138.000000, 64.746, 56.8016
140.000000, 64.606, 56.2024
143.000000, 64.462, 55.7994
145.000000, 64.376, 55.2745
147.500000, 64.213, 54.2536
150.000000, 64.001, 53.4246
152.500000, 63.855, 53.2309
155.000000, 63.765, 52.8155
157.500000, 63.656, 52.3708
160.000000, 63.543, 51.9954
162.500000, 63.395, 51.6976
165.000000, 63.279, 51.3182
167.500000, 63.176, 50.7514
170.000000, 63.089, 50.5976
172.500000, 62.992, 50.5057
175.000000, 62.898, 50.1212
177.500000, 62.821, 49.6292
180.000000, 62.729, 49.2158
182.500000, 62.579, 49.0855
185.000000, 62.487, 48.7153
187.500000, 62.420, 47.7338
190.000000, 62.362, 47.3388
192.500000, 62.323, 47.1811
195.000000, 62.262, 46.9968
197.500000, 62.198, 46.7704
200.000000, 62.133, 46.4806
203.000000, 62.033, 46.1065
206.000000, 61.922, 45.8785
209.000000, 61.811, 45.5544
212.000000, 61.716, 45.1356
214.000000, 61.662, 44.8116
218.000000, 61.552, 44.4495
220.000000, 61.496, 44.3290
224.000000, 61.393, 44.1124
227.000000, 61.332, 43.8567
230.000000, 61.285, 43.4133
233.000000, 61.236, 42.9591
236.000000, 61.180, 42.7235
240.000000, 61.099, 42.5838
243.000000, 61.028, 42.4182
247.000000, 60.949, 42.0289
250.000000, 60.906, 41.5931
254.000000, 60.861, 41.1907
258.000000, 60.799, 40.9515
262.000000, 60.725, 40.8203
265.000000, 60.688, 40.6315
269.000000, 60.633, 40.3558
272.000000, 60.581, 40.1353
276.000000, 60.509, 39.7735
280.000000, 60.407, 39.4025
285.000000, 60.275, 39.3981
290.000000, 60.237, 39.5052
295.000000, 60.188, 39.1000
300.000000, 60.201, 39.1089
304.000000, 60.255, 39.2619
307.000000, 60.223, 38.8125
311.000000, 60.109, 37.8634
315.000000, 60.043, 37.1663
320.000000, 60.020, 36.5876
325.000000, 60.015, 36.3522
330.000000, 59.994, 36.7140
335.000000, 59.935, 36.8446
340.000000, 59.837, 36.5516
345.000000, 59.773, 35.7247
350.000000, 59.757, 34.8032
355.000000, 59.776, 34.7606
360.000000, 59.770, 34.9648
365.000000, 59.717, 35.0390
370.000000, 59.693, 34.7194
375.000000, 59.681, 34.4777
382.000000, 59.599, 34.4201
387.000000, 59.545, 34.3355
395.000000, 59.508, 33.9486
400.000000, 59.465, 33.9450
406.000000, 59.400, 34.0340
412.000000, 59.375, 34.0575
418.000000, 59.374, 33.9285
425.000000, 59.330, 33.8580
431.000000, 59.271, 33.8658
437.000000, 59.253, 33.8383
444.000000, 59.261, 33.4419
450.000000, 59.256, 33.2370
455.000000, 59.241, 33.3840
462.000000, 59.194, 33.1450
468.000000, 59.163, 32.9636
475.000000, 59.184, 32.9724
482.000000, 59.202, 32.7673
487.000000, 59.233, 32.6270
494.000000, 59.244, 32.3911
500.000000, 59.195, 32.3424
508.000000, 59.118, 32.6224
515.000000, 59.051, 32.8570
522.000000, 58.998, 32.9786
530.000000, 58.964, 32.8264
538.000000, 58.950, 32.6388
545.000000, 58.973, 32.4191
552.000000, 59.001, 32.4895
560.000000, 59.021, 32.5263
570.000000, 58.977, 32.5973
580.000000, 58.912, 32.7284
590.000000, 58.920, 33.0152
600.000000, 59.002, 33.0216
608.000000, 59.050, 33.1307
615.000000, 59.028, 33.3810
622.000000, 58.988, 33.4277
630.000000, 58.951, 33.4602
640.000000, 58.903, 33.8507
650.000000, 58.878, 33.9644
660.000000, 58.879, 34.0831
670.000000, 58.873, 34.1429
680.000000, 58.898, 34.2463
690.000000, 58.921, 34.4511
700.000000, 58.900, 34.8495
710.000000, 58.891, 35.2389
720.000000, 58.913, 35.4564
730.000000, 58.915, 35.5018
740.000000, 58.931, 35.7160
750.000000, 58.965, 36.0769
762.000000, 58.985, 36.5018
775.000000, 58.995, 36.8638
788.000000, 59.023, 37.3497
800.000000, 59.059, 37.7790
812.000000, 59.096, 38.2590
825.000000, 59.136, 38.7599
838.000000, 59.176, 39.2028
850.000000, 59.219, 39.6426
862.000000, 59.273, 40.1482
875.000000, 59.333, 40.6831
885.000000, 59.387, 41.1159
900.000000, 59.480, 41.7032
912.000000, 59.561, 42.1110
925.000000, 59.651, 42.5558
938.000000, 59.740, 42.9863
950.000000, 59.822, 43.3501
962.000000, 59.906, 43.7057
975.000000, 59.999, 44.0928
988.000000, 60.098, 44.4502
1000.000000, 60.192, 44.7666
1015.000000, 60.317, 45.1398
1030.000000, 60.448, 45.4721
1044.000000, 60.572, 45.7428
1060.000000, 60.719, 45.9887
1075.000000, 60.859, 46.1761
1090.000000, 61.001, 46.3217
1106.000000, 61.153, 46.4189
1120.000000, 61.284, 46.4651
1138.000000, 61.449, 46.4645
1150.000000, 61.557, 46.4394
1172.000000, 61.753, 46.3250
1180.000000, 61.822, 46.2613
1206.000000, 62.034, 46.0117
1220.000000, 62.144, 45.8530
1241.000000, 62.303, 45.5675
1250.000000, 62.368, 45.4297
1265.000000, 62.472, 45.1956
1280.000000, 62.572, 44.9624
1315.000000, 62.791, 44.3857
1320.000000, 62.820, 44.2983
1340.000000, 62.936, 43.9568
1360.000000, 63.046, 43.6333
1380.000000, 63.152, 43.3074
1400.000000, 63.255, 42.9882
1430.000000, 63.404, 42.5243
1450.000000, 63.499, 42.2273
1475.000000, 63.615, 41.8761
1500.000000, 63.726, 41.5465
1525.000000, 63.836, 41.2238
1550.000000, 63.944, 40.9235
1575.000000, 64.049, 40.6369
1600.000000, 64.154, 40.3581
1625.000000, 64.258, 40.0924
1650.000000, 64.360, 39.8395
1675.000000, 64.465, 39.5825
1700.000000, 64.569, 39.3252
1725.000000, 64.675, 39.0760
1750.000000, 64.780, 38.8265
1775.000000, 64.885, 38.5732
1800.000000, 64.993, 38.3151
1825.000000, 65.102, 38.0470
1850.000000, 65.212, 37.7677
1875.000000, 65.322, 37.4826
1900.000000, 65.432, 37.1880
1925.000000, 65.542, 36.8790
1950.000000, 65.651, 36.5498
1975.000000, 65.762, 36.2042
2000.000000, 65.871, 35.8474
2030.000000, 66.001, 35.4008
2060.000000, 66.132, 34.9257
2090.000000, 66.263, 34.4198
2120.000000, 66.396, 33.8825
2140.000000, 66.486, 33.5065
2180.000000, 66.661, 32.7091
2200.000000, 66.746, 32.2908
2240.000000, 66.911, 31.4204
2270.000000, 67.031, 30.7324
2300.000000, 67.148, 30.0080
2330.000000, 67.259, 29.2490
2360.000000, 67.365, 28.4641
2400.000000, 67.497, 27.3805
2430.000000, 67.591, 26.5365
2470.000000, 67.709, 25.3738
2500.000000, 67.793, 24.4796
2540.000000, 67.896, 23.2681
2580.000000, 67.991, 22.0371
2620.000000, 68.078, 20.7817
2650.000000, 68.139, 19.8245
2690.000000, 68.210, 18.5167
2720.000000, 68.254, 17.5121
2760.000000, 68.301, 16.1516
2800.000000, 68.332, 14.7855
2850.000000, 68.349, 13.0883
2900.000000, 68.345, 11.4139
2950.000000, 68.322, 9.7758
3000.000000, 68.283, 8.1787
3040.000000, 68.240, 6.9342
3070.000000, 68.202, 6.0253
3110.000000, 68.142, 4.8464
3150.000000, 68.074, 3.7019
3200.000000, 67.979, 2.3215
3250.000000, 67.873, 0.9987
3300.000000, 67.756, -0.2604
3350.000000, 67.628, -1.4570
3400.000000, 67.490, -2.5924
3450.000000, 67.344, -3.6675
3500.000000, 67.187, -4.6844
3550.000000, 67.019, -5.6418
3600.000000, 66.839, -6.5427
3650.000000, 66.647, -7.3848
3700.000000, 66.440, -8.1614
3750.000000, 66.216, -8.8632
3820.000000, 65.870, -9.6902
3870.000000, 65.596, -10.1448
3950.000000, 65.108, -10.5511
4000.000000, 64.767, -10.5268
4060.000000, 64.324, -10.1074
4120.000000, 63.847, -9.1315
4180.000000, 63.351, -7.4286
4250.000000, 62.787, -4.2553
4310.000000, 62.376, -0.3472
4370.000000, 62.110, 4.6472
4440.000000, 62.092, 11.3851
4500.000000, 62.377, 17.1565
4550.000000, 62.814, 21.3575
4620.000000, 63.639, 25.6154
4680.000000, 64.437, 27.5129
4750.000000, 65.352, 27.7960
4820.000000, 66.159, 26.3929
4870.000000, 66.642, 24.6383
4940.000000, 67.170, 21.4948
5000.000000, 67.486, 18.4443
5080.000000, 67.728, 14.2393
5150.000000, 67.797, 10.6818
5220.000000, 67.758, 7.4005
5300.000000, 67.609, 4.0950
5380.000000, 67.381, 1.3179
5450.000000, 67.137, -0.6736
5520.000000, 66.867, -2.2733
5600.000000, 66.541, -3.6622
5700.000000, 66.128, -4.8244
5800.000000, 65.720, -5.4512
5900.000000, 65.323, -5.6312
6000.000000, 64.939, -5.4042
6080.000000, 64.642, -4.9210
6150.000000, 64.396, -4.2651
6220.000000, 64.170, -3.4000
6300.000000, 63.945, -2.2091
6400.000000, 63.721, -0.5385
6500.000000, 63.561, 1.1917
6600.000000, 63.454, 2.8934
6700.000000, 63.390, 4.5468
6800.000000, 63.366, 6.1518
6900.000000, 63.391, 7.7088
7000.000000, 63.478, 9.1533
7100.000000, 63.634, 10.3298
7200.000000, 63.852, 11.0143
7300.000000, 64.106, 11.0114
7400.000000, 64.355, 10.2168
7500.000000, 64.566, 8.6508
7620.000000, 64.724, 5.7214
7750.000000, 64.663, 1.3178
7880.000000, 64.228, -3.4120
8000.000000, 63.486, -6.7267
8120.000000, 62.527, -7.9644
8250.000000, 61.464, -6.4325
8380.000000, 60.614, -2.3722
8500.000000, 60.146, 2.4478
8620.000000, 59.983, 7.0498
8750.000000, 60.025, 10.7073
8850.000000, 60.079, 12.5505
9000.000000, 60.140, 14.6528
9120.000000, 60.172, 15.7772
9250.000000, 60.156, 16.6300
9380.000000, 60.083, 17.4152
9500.000000, 59.983, 18.2380
9620.000000, 59.868, 19.2236
9750.000000, 59.743, 20.5021
9880.000000, 59.636, 21.9984
10000.000000, 59.568, 23.5413
10150.000000, 59.539, 25.6012
10300.000000, 59.588, 27.6964
10440.000000, 59.707, 29.5611
10600.000000, 59.934, 31.3986
10750.000000, 60.222, 32.6483
10900.000000, 60.566, 33.3512
11060.000000, 60.993, 33.5740
11200.000000, 61.441, 33.1816
11380.000000, 62.096, 31.2575
11500.000000, 62.528, 28.9055
11720.000000, 63.184, 22.5137
11800.000000, 63.352, 19.6361
12060.000000, 63.567, 9.0618
12200.000000, 63.472, 3.0792
12410.000000, 63.107, -5.7126
12500.000000, 62.889, -9.3627
12650.000000, 62.465, -15.3202
12800.000000, 61.973, -21.2072
13150.000000, 60.507, -34.9483
13200.000000, 60.251, -36.8776
13400.000000, 59.100, -44.2487
13600.000000, 57.766, -50.6792
13800.000000, 56.303, -55.8734
14000.000000, 54.778, -59.7179
14300.000000, 52.522, -63.0533
14500.000000, 51.129, -64.0165
14750.000000, 49.567, -64.3874
15000.000000, 48.214, -64.4036
15250.000000, 47.057, -64.6698
15500.000000, 46.024, -65.7436
15750.000000, 44.947, -67.3710
16000.000000, 43.806, -67.4785
16250.000000, 43.044, -65.9100
16500.000000, 42.804, -65.7637
16750.000000, 42.836, -67.9817
17000.000000, 43.056, -72.2422
17250.000000, 43.494, -78.6938
17500.000000, 44.207, -88.1505
17750.000000, 45.195, -102.1755
18000.000000, 46.262, -122.5524
18250.000000, 46.885, -150.2102
18500.000000, 46.429, 176.3203
18750.000000, 44.651, 140.8417
19000.000000, 41.842, 105.9738
19250.000000, 38.462, 71.3015
19500.000000, 34.787, 34.8865
19750.000000, 30.937, -5.3535
20000.000000, 27.810, -44.6332
