* Measurement data measured by REW V5.31.3
* Source: EXCL: Headset (USB-C to 3.5mm Headphone Jack Adapter), MICROPHONE (Master Volume), 0, volume: 0.700
* Format: 256k Log Swept Sine, 1 sweep at -12.0 dBFS with no timing reference
* Dated: Feb 17, 2025 5:58:47 AM
* REW Settings:
*  C-weighting compensation: Off
*  Target level: 75.0 dB
* Note: ; 
* Measurement: Tanchjim Bunny L
* Smoothing: 1/24 octave
* Frequency Step: 1/48 octave
* Start Frequency: 1.000 Hz
*
* Freq(Hz), SPL(dB), Phase(degrees)
1.000000, 74.215, -4.6387
1.015000, 74.467, -5.0087
1.030000, 74.716, -5.3902
1.044000, 74.947, -5.7570
1.060000, 75.208, -6.1897
1.075000, 75.451, -6.6086
1.090000, 75.691, -7.0401
1.106000, 75.945, -7.5091
1.120000, 76.165, -7.9178
1.138000, 76.443, -8.4351
1.150000, 76.626, -8.7748
1.172000, 76.956, -9.3883
1.180000, 77.075, -9.6088
1.206000, 77.454, -10.3179
1.220000, 77.655, -10.6959
1.241000, 77.951, -11.2593
1.250000, 78.077, -11.4999
1.265000, 78.284, -11.9002
1.280000, 78.489, -12.3002
1.315000, 78.958, -13.2352
1.320000, 79.024, -13.3693
1.340000, 79.286, -13.9076
1.360000, 79.544, -14.4500
1.380000, 79.799, -14.9975
1.400000, 80.051, -15.5512
1.430000, 80.423, -16.3951
1.450000, 80.668, -16.9676
1.475000, 80.970, -17.6902
1.500000, 81.266, -18.4079
1.525000, 81.556, -19.1155
1.550000, 81.840, -19.8144
1.575000, 82.118, -20.5067
1.600000, 82.390, -21.1944
1.625000, 82.657, -21.8797
1.650000, 82.918, -22.5645
1.675000, 83.175, -23.2507
1.700000, 83.427, -23.9401
1.725000, 83.675, -24.6345
1.750000, 83.919, -25.3356
1.775000, 84.159, -26.0450
1.800000, 84.396, -26.7641
1.825000, 84.629, -27.4941
1.850000, 84.858, -28.2334
1.875000, 85.082, -28.9784
1.900000, 85.302, -29.7262
1.925000, 85.517, -30.4749
1.950000, 85.727, -31.2230
1.975000, 85.933, -31.9695
2.000000, 86.136, -32.7135
2.030000, 86.373, -33.6022
2.060000, 86.605, -34.4858
2.090000, 86.832, -35.3643
2.120000, 87.055, -36.2377
2.140000, 87.201, -36.8174
2.180000, 87.487, -37.9721
2.200000, 87.627, -38.5487
2.240000, 87.901, -39.7074
2.270000, 88.100, -40.5820
2.300000, 88.294, -41.4584
2.330000, 88.483, -42.3335
2.360000, 88.667, -43.2049
2.400000, 88.906, -44.3571
2.430000, 89.080, -45.2118
2.470000, 89.306, -46.3360
2.500000, 89.471, -47.1664
2.540000, 89.687, -48.2560
2.580000, 89.896, -49.3312
2.620000, 90.098, -50.4061
2.650000, 90.245, -51.2140
2.690000, 90.434, -52.2896
2.720000, 90.571, -53.0917
2.760000, 90.749, -54.1508
2.800000, 90.921, -55.1935
2.850000, 91.129, -56.4673
2.900000, 91.330, -57.7024
2.950000, 91.525, -58.9027
3.000000, 91.710, -60.0890
3.040000, 91.853, -61.0321
3.070000, 91.956, -61.7339
3.110000, 92.089, -62.6591
3.150000, 92.219, -63.5688
3.200000, 92.375, -64.6785
3.250000, 92.528, -65.7517
3.300000, 92.676, -66.7861
3.350000, 92.818, -67.7914
3.400000, 92.955, -68.7773
3.450000, 93.087, -69.7440
3.500000, 93.214, -70.6891
3.550000, 93.337, -71.6099
3.600000, 93.458, -72.5037
3.650000, 93.577, -73.3682
3.700000, 93.694, -74.2047
3.750000, 93.808, -75.0175
3.820000, 93.963, -76.1214
3.870000, 94.070, -76.8879
3.950000, 94.240, -78.0798
4.000000, 94.345, -78.8041
4.060000, 94.470, -79.6516
4.120000, 94.594, -80.4742
4.180000, 94.716, -81.2753
4.250000, 94.858, -82.1900
4.310000, 94.977, -82.9631
4.370000, 95.096, -83.7305
4.440000, 95.234, -84.6190
4.500000, 95.352, -85.3713
4.550000, 95.450, -85.9923
4.620000, 95.585, -86.8564
4.680000, 95.699, -87.5957
4.750000, 95.829, -88.4610
4.820000, 95.958, -89.3309
4.870000, 96.048, -89.9541
4.940000, 96.173, -90.8275
5.000000, 96.277, -91.5757
5.080000, 96.412, -92.5719
5.150000, 96.526, -93.4442
5.220000, 96.636, -94.3212
5.300000, 96.757, -95.3268
5.380000, 96.873, -96.3273
5.450000, 96.970, -97.1922
5.520000, 97.063, -98.0465
5.600000, 97.163, -99.0173
5.700000, 97.280, -100.2193
5.800000, 97.390, -101.3913
5.900000, 97.493, -102.5220
6.000000, 97.588, -103.6202
6.080000, 97.659, -104.4756
6.150000, 97.719, -105.2027
6.220000, 97.777, -105.9065
6.300000, 97.842, -106.6826
6.400000, 97.918, -107.6160
6.500000, 97.993, -108.5119
6.600000, 98.067, -109.3713
6.700000, 98.140, -110.1927
6.800000, 98.214, -110.9809
6.900000, 98.287, -111.7463
7.000000, 98.362, -112.4943
7.100000, 98.438, -113.2236
7.200000, 98.514, -113.9392
7.300000, 98.591, -114.6507
7.400000, 98.668, -115.3620
7.500000, 98.746, -116.0718
7.620000, 98.838, -116.9243
7.750000, 98.935, -117.8552
7.880000, 99.029, -118.7943
8.000000, 99.111, -119.6629
8.120000, 99.190, -120.5309
8.250000, 99.269, -121.4715
8.380000, 99.343, -122.4024
8.500000, 99.406, -123.2472
8.620000, 99.463, -124.0788
8.750000, 99.521, -124.9580
8.850000, 99.561, -125.6148
9.000000, 99.617, -126.5698
9.120000, 99.659, -127.3058
9.250000, 99.701, -128.0725
9.380000, 99.740, -128.8092
9.500000, 99.775, -129.4639
9.620000, 99.808, -130.0947
9.750000, 99.844, -130.7528
9.880000, 99.878, -131.3876
10.000000, 99.909, -131.9544
10.150000, 99.948, -132.6387
10.300000, 99.986, -133.3004
10.440000, 100.021, -133.8992
10.600000, 100.062, -134.5658
10.750000, 100.100, -135.1767
10.900000, 100.139, -135.7772
11.060000, 100.181, -136.4124
11.200000, 100.218, -136.9658
11.380000, 100.265, -137.6810
11.500000, 100.295, -138.1626
11.720000, 100.350, -139.0579
11.800000, 100.368, -139.3885
12.060000, 100.422, -140.4769
12.200000, 100.447, -141.0676
12.410000, 100.476, -141.9500
12.500000, 100.486, -142.3223
12.650000, 100.498, -142.9318
12.800000, 100.507, -143.5211
13.150000, 100.515, -144.7903
13.200000, 100.516, -144.9584
13.400000, 100.519, -145.5974
13.600000, 100.524, -146.1919
13.800000, 100.533, -146.7531
14.000000, 100.547, -147.3002
14.300000, 100.576, -148.1263
14.500000, 100.598, -148.6979
14.750000, 100.624, -149.4382
15.000000, 100.644, -150.1956
15.250000, 100.657, -150.9440
15.500000, 100.664, -151.6559
15.750000, 100.668, -152.3138
16.000000, 100.674, -152.9146
16.250000, 100.686, -153.4758
16.500000, 100.704, -154.0231
16.750000, 100.728, -154.5839
17.000000, 100.752, -155.1723
17.250000, 100.772, -155.7838
17.500000, 100.785, -156.3971
17.750000, 100.790, -156.9798
18.000000, 100.790, -157.5054
18.250000, 100.789, -157.9610
18.500000, 100.794, -158.3571
18.750000, 100.809, -158.7253
19.000000, 100.833, -159.1057
19.250000, 100.864, -159.5358
19.500000, 100.893, -160.0307
19.750000, 100.915, -160.5816
20.000000, 100.924, -161.1566
20.299999, 100.917, -161.8172
20.600000, 100.897, -162.3863
20.900000, 100.876, -162.8399
21.200001, 100.865, -163.2082
21.400000, 100.866, -163.4413
21.799999, 100.885, -163.9748
22.000000, 100.896, -164.3026
22.400000, 100.907, -165.0728
22.700001, 100.896, -165.6861
23.000000, 100.869, -166.2520
23.299999, 100.834, -166.7190
23.600000, 100.802, -167.0776
24.000000, 100.779, -167.4520
24.299999, 100.780, -167.7320
24.700001, 100.795, -168.1934
25.000000, 100.806, -168.6170
25.400000, 100.810, -169.2362
25.799999, 100.801, -169.8329
26.200001, 100.786, -170.3416
26.500000, 100.777, -170.6577
26.900000, 100.775, -171.0163
27.200001, 100.783, -171.2639
27.600000, 100.803, -171.6040
28.000000, 100.833, -171.9922
28.500000, 100.872, -172.5831
29.000000, 100.897, -173.2787
29.500000, 100.895, -173.9868
30.000000, 100.870, -174.5809
30.400000, 100.844, -174.9256
30.700001, 100.829, -175.1154
31.100000, 100.819, -175.3182
31.500000, 100.822, -175.5215
32.000000, 100.839, -175.8546
32.500000, 100.856, -176.3118
33.000000, 100.860, -176.8649
33.500000, 100.845, -177.4301
34.000000, 100.817, -177.9172
34.500000, 100.793, -178.3015
35.000000, 100.784, -178.6548
35.500000, 100.789, -179.0795
36.000000, 100.790, -179.6049
36.500000, 100.778, 179.8391
37.000000, 100.755, 179.3402
37.500000, 100.733, 178.9223
38.200001, 100.717, 178.3999
38.700001, 100.712, 178.0289
39.500000, 100.712, 177.4058
40.000000, 100.714, 176.9639
40.599998, 100.704, 176.3979
41.200001, 100.677, 175.9172
41.799999, 100.657, 175.5866
42.500000, 100.665, 175.1906
43.099998, 100.676, 174.6684
43.700001, 100.660, 174.0805
44.400002, 100.620, 173.5607
45.000000, 100.603, 173.2222
45.500000, 100.600, 172.8882
46.200001, 100.587, 172.3099
46.799999, 100.560, 171.8417
47.500000, 100.534, 171.3903
48.200001, 100.521, 170.9236
48.700001, 100.512, 170.5552
49.400002, 100.495, 170.0459
50.000000, 100.482, 169.6288
50.799999, 100.468, 169.0486
51.500000, 100.449, 168.5470
52.200001, 100.427, 168.1219
53.000000, 100.413, 167.7002
53.799999, 100.411, 167.2277
54.500000, 100.406, 166.7304
55.200001, 100.385, 166.2205
56.000000, 100.352, 165.7234
57.000000, 100.325, 165.1393
58.000000, 100.293, 164.4212
59.000000, 100.240, 163.7653
60.000000, 100.201, 163.2277
60.799999, 100.181, 162.7484
61.500000, 100.160, 162.2867
62.200001, 100.135, 161.8368
63.000000, 100.108, 161.3579
64.000000, 100.080, 160.7523
65.000000, 100.046, 160.1052
66.000000, 100.003, 159.4960
67.000000, 99.964, 158.9678
68.000000, 99.936, 158.4019
69.000000, 99.899, 157.7646
70.000000, 99.851, 157.2034
71.000000, 99.810, 156.6942
72.000000, 99.771, 156.1677
73.000000, 99.732, 155.6525
74.000000, 99.695, 155.1124
75.000000, 99.654, 154.5739
76.199997, 99.610, 153.9466
77.500000, 99.559, 153.2234
78.800003, 99.498, 152.5570
80.000000, 99.441, 152.0172
81.199997, 99.393, 151.4819
82.500000, 99.339, 150.8429
83.800003, 99.281, 150.1915
85.000000, 99.226, 149.6037
86.199997, 99.173, 149.0461
87.500000, 99.117, 148.4619
88.500000, 99.073, 148.0240
90.000000, 99.005, 147.3730
91.199997, 98.950, 146.8579
92.500000, 98.894, 146.2992
93.800003, 98.839, 145.7232
95.000000, 98.784, 145.2193
96.199997, 98.728, 144.7768
97.500000, 98.668, 144.2770
98.800003, 98.601, 143.7407
100.000000, 98.538, 143.2505
101.500000, 98.469, 142.6126
103.000000, 98.405, 142.0236
104.400002, 98.348, 141.5476
106.000000, 98.269, 141.0325
107.500000, 98.179, 140.5442
109.000000, 98.087, 139.9576
110.599998, 98.008, 139.3076
112.000000, 97.964, 138.8147
113.800003, 97.903, 138.3583
115.000000, 97.825, 138.2047
117.199997, 97.563, 137.9445
118.000000, 97.426, 137.8681
120.599998, 97.213, 138.5362
122.000000, 97.287, 137.5446
124.099998, 97.302, 136.0027
125.000000, 97.291, 135.6987
126.500000, 97.252, 135.5151
128.000000, 97.194, 135.4987
131.500000, 97.068, 134.8599
132.000000, 97.053, 134.7419
134.000000, 96.998, 134.4526
136.000000, 96.950, 134.3443
138.000000, 96.895, 133.9927
140.000000, 96.844, 133.3622
143.000000, 96.813, 132.2315
145.000000, 96.777, 131.6701
147.500000, 96.692, 131.0479
150.000000, 96.585, 130.5254
152.500000, 96.507, 130.0440
155.000000, 96.431, 129.5798
157.500000, 96.345, 129.0990
160.000000, 96.263, 128.6342
162.500000, 96.194, 128.2423
165.000000, 96.129, 127.8461
167.500000, 96.056, 127.4689
170.000000, 95.989, 127.1092
172.500000, 95.925, 126.7490
175.000000, 95.866, 126.3634
177.500000, 95.807, 125.9854
180.000000, 95.753, 125.6311
182.500000, 95.702, 125.2760
185.000000, 95.653, 124.9252
187.500000, 95.606, 124.5697
190.000000, 95.560, 124.2186
192.500000, 95.517, 123.8948
195.000000, 95.476, 123.5745
197.500000, 95.431, 123.2212
200.000000, 95.385, 122.8573
203.000000, 95.338, 122.4798
206.000000, 95.300, 122.1244
209.000000, 95.263, 121.7530
212.000000, 95.231, 121.3730
214.000000, 95.210, 121.1275
218.000000, 95.167, 120.6522
220.000000, 95.149, 120.3963
224.000000, 95.119, 119.8253
227.000000, 95.096, 119.4070
230.000000, 95.078, 118.9855
233.000000, 95.064, 118.5510
236.000000, 95.053, 118.1306
240.000000, 95.035, 117.5531
243.000000, 95.021, 117.0926
247.000000, 95.003, 116.4730
250.000000, 94.991, 116.0078
254.000000, 94.978, 115.3939
258.000000, 94.967, 114.7675
262.000000, 94.958, 114.1198
265.000000, 94.952, 113.6226
269.000000, 94.944, 112.9702
272.000000, 94.940, 112.4851
276.000000, 94.935, 111.8175
280.000000, 94.932, 111.1468
285.000000, 94.931, 110.3003
290.000000, 94.934, 109.4260
295.000000, 94.936, 108.5418
300.000000, 94.936, 107.6322
304.000000, 94.938, 106.8981
307.000000, 94.940, 106.3455
311.000000, 94.942, 105.6074
315.000000, 94.945, 104.8646
320.000000, 94.948, 103.9165
325.000000, 94.952, 102.9576
330.000000, 94.956, 102.0037
335.000000, 94.962, 101.0451
340.000000, 94.968, 100.0787
345.000000, 94.973, 99.1057
350.000000, 94.977, 98.1270
355.000000, 94.982, 97.1415
360.000000, 94.988, 96.1465
365.000000, 94.994, 95.1488
370.000000, 94.999, 94.1457
375.000000, 95.004, 93.1396
382.000000, 95.011, 91.7262
387.000000, 95.016, 90.7119
395.000000, 95.023, 89.0848
400.000000, 95.028, 88.0626
406.000000, 95.033, 86.8354
412.000000, 95.037, 85.6036
418.000000, 95.041, 84.3771
425.000000, 95.045, 82.9374
431.000000, 95.048, 81.7039
437.000000, 95.050, 80.4772
444.000000, 95.053, 79.0457
450.000000, 95.055, 77.8176
455.000000, 95.056, 76.7922
462.000000, 95.058, 75.3565
468.000000, 95.058, 74.1245
475.000000, 95.058, 72.6896
482.000000, 95.057, 71.2600
487.000000, 95.055, 70.2446
494.000000, 95.053, 68.8273
500.000000, 95.051, 67.6227
508.000000, 95.047, 66.0221
515.000000, 95.043, 64.6147
522.000000, 95.039, 63.2081
530.000000, 95.034, 61.6118
538.000000, 95.029, 60.0274
545.000000, 95.024, 58.6476
552.000000, 95.018, 57.2750
560.000000, 95.012, 55.7178
570.000000, 95.002, 53.7791
580.000000, 94.991, 51.8541
590.000000, 94.982, 49.9588
600.000000, 94.971, 48.0721
608.000000, 94.961, 46.5716
615.000000, 94.953, 45.2679
622.000000, 94.945, 43.9725
630.000000, 94.935, 42.5040
640.000000, 94.923, 40.6912
650.000000, 94.911, 38.8903
660.000000, 94.898, 37.1045
670.000000, 94.885, 35.3412
680.000000, 94.872, 33.6013
690.000000, 94.860, 31.8813
700.000000, 94.849, 30.1825
710.000000, 94.839, 28.5018
720.000000, 94.828, 26.8386
730.000000, 94.819, 25.1965
740.000000, 94.810, 23.5761
750.000000, 94.802, 21.9807
762.000000, 94.795, 20.0998
775.000000, 94.788, 18.0952
788.000000, 94.783, 16.1289
800.000000, 94.783, 14.3466
812.000000, 94.785, 12.5936
825.000000, 94.793, 10.7290
838.000000, 94.807, 8.8959
850.000000, 94.825, 7.2257
862.000000, 94.848, 5.5742
875.000000, 94.879, 3.8038
885.000000, 94.907, 2.4479
900.000000, 94.955, 0.4166
912.000000, 94.999, -1.2078
925.000000, 95.052, -2.9685
938.000000, 95.109, -4.7343
950.000000, 95.166, -6.3724
962.000000, 95.226, -8.0180
975.000000, 95.295, -9.8088
988.000000, 95.366, -11.6136
1000.000000, 95.434, -13.2949
1015.000000, 95.522, -15.4095
1030.000000, 95.611, -17.5381
1044.000000, 95.697, -19.5402
1060.000000, 95.796, -21.8445
1075.000000, 95.889, -24.0211
1090.000000, 95.983, -26.2119
1106.000000, 96.083, -28.5659
1120.000000, 96.170, -30.6383
1138.000000, 96.281, -33.3120
1150.000000, 96.354, -35.1030
1172.000000, 96.487, -38.4044
1180.000000, 96.534, -39.6067
1206.000000, 96.682, -43.5140
1220.000000, 96.759, -45.6180
1241.000000, 96.872, -48.7664
1250.000000, 96.919, -50.1103
1265.000000, 96.995, -52.3425
1280.000000, 97.070, -54.5629
1315.000000, 97.238, -59.6970
1320.000000, 97.261, -60.4246
1340.000000, 97.354, -63.3169
1360.000000, 97.445, -66.1814
1380.000000, 97.535, -69.0164
1400.000000, 97.624, -71.8221
1430.000000, 97.759, -75.9784
1450.000000, 97.849, -78.7147
1475.000000, 97.962, -82.1145
1500.000000, 98.075, -85.5059
1525.000000, 98.187, -88.8917
1550.000000, 98.300, -92.2573
1575.000000, 98.415, -95.5864
1600.000000, 98.530, -98.8853
1625.000000, 98.646, -102.1519
1650.000000, 98.763, -105.3883
1675.000000, 98.881, -108.5977
1700.000000, 98.999, -111.7765
1725.000000, 99.120, -114.9180
1750.000000, 99.246, -118.0251
1775.000000, 99.379, -121.1152
1800.000000, 99.518, -124.2252
1825.000000, 99.658, -127.3807
1850.000000, 99.795, -130.5642
1875.000000, 99.925, -133.7417
1900.000000, 100.052, -136.8981
1925.000000, 100.176, -140.0347
1950.000000, 100.298, -143.1538
1975.000000, 100.420, -146.2562
2000.000000, 100.541, -149.3439
2030.000000, 100.683, -153.0316
2060.000000, 100.824, -156.6975
2090.000000, 100.962, -160.3420
2120.000000, 101.098, -163.9654
2140.000000, 101.188, -166.3663
2180.000000, 101.366, -171.1320
2200.000000, 101.455, -173.4966
2240.000000, 101.636, -178.2128
2270.000000, 101.773, 178.2265
2300.000000, 101.906, 174.6321
2330.000000, 102.031, 171.0142
2360.000000, 102.147, 167.3961
2400.000000, 102.286, 162.6021
2430.000000, 102.381, 159.0370
2470.000000, 102.496, 154.3270
2500.000000, 102.574, 150.8267
2540.000000, 102.666, 146.2097
2580.000000, 102.745, 141.6566
2620.000000, 102.812, 137.1746
2650.000000, 102.854, 133.8621
2690.000000, 102.897, 129.5090
2720.000000, 102.921, 126.2979
2760.000000, 102.941, 122.1028
2800.000000, 102.950, 118.0212
2850.000000, 102.953, 113.0845
2900.000000, 102.950, 108.3038
2950.000000, 102.941, 103.6223
3000.000000, 102.917, 99.0209
3040.000000, 102.882, 95.4201
3070.000000, 102.847, 92.7847
3110.000000, 102.789, 89.3748
3150.000000, 102.721, 86.0972
3200.000000, 102.623, 82.2002
3250.000000, 102.519, 78.5305
3300.000000, 102.414, 75.0483
3350.000000, 102.311, 71.6769
3400.000000, 102.211, 68.3791
3450.000000, 102.113, 65.1714
3500.000000, 102.015, 62.0651
3550.000000, 101.915, 59.0647
3600.000000, 101.815, 56.1688
3650.000000, 101.714, 53.3745
3700.000000, 101.614, 50.6793
3750.000000, 101.515, 48.0786
3820.000000, 101.379, 44.5789
3870.000000, 101.282, 42.1694
3950.000000, 101.124, 38.4706
4000.000000, 101.024, 36.2650
4060.000000, 100.904, 33.7310
4120.000000, 100.784, 31.3161
4180.000000, 100.665, 29.0209
4250.000000, 100.528, 26.4904
4310.000000, 100.414, 24.4386
4370.000000, 100.302, 22.4843
4440.000000, 100.174, 20.3168
4500.000000, 100.066, 18.5498
4550.000000, 99.977, 17.1406
4620.000000, 99.854, 15.2623
4680.000000, 99.750, 13.7368
4750.000000, 99.628, 12.0554
4820.000000, 99.505, 10.4872
4870.000000, 99.416, 9.4406
4940.000000, 99.291, 8.0788
5000.000000, 99.185, 7.0042
5080.000000, 99.046, 5.6992
5150.000000, 98.926, 4.6678
5220.000000, 98.805, 3.7369
5300.000000, 98.666, 2.7989
5380.000000, 98.525, 2.0058
5450.000000, 98.400, 1.4302
5520.000000, 98.275, 0.9716
5600.000000, 98.131, 0.6015
5700.000000, 97.956, 0.3787
5800.000000, 97.788, 0.4374
5900.000000, 97.633, 0.7581
6000.000000, 97.492, 1.3176
6080.000000, 97.391, 1.9324
6150.000000, 97.312, 2.5909
6220.000000, 97.244, 3.3593
6300.000000, 97.180, 4.3658
6400.000000, 97.126, 5.8021
6500.000000, 97.104, 7.3712
6600.000000, 97.113, 8.9659
6700.000000, 97.160, 10.5851
6800.000000, 97.250, 12.2549
6900.000000, 97.385, 13.9536
7000.000000, 97.567, 15.6400
7100.000000, 97.800, 17.2672
7200.000000, 98.091, 18.7631
7300.000000, 98.445, 19.9941
7400.000000, 98.863, 20.7780
7500.000000, 99.332, 20.9092
7620.000000, 99.928, 19.8978
7750.000000, 100.530, 17.0247
7880.000000, 100.946, 12.2231
8000.000000, 101.027, 6.5098
8120.000000, 100.737, 0.4609
8250.000000, 100.008, -5.2549
8380.000000, 98.951, -9.1294
8500.000000, 97.810, -10.7131
8620.000000, 96.610, -10.4552
8750.000000, 95.319, -8.4057
8850.000000, 94.359, -5.8009
9000.000000, 92.986, -0.5173
9120.000000, 91.951, 4.7625
9250.000000, 90.893, 11.5043
9380.000000, 89.921, 19.3660
9500.000000, 89.138, 27.6262
9620.000000, 88.511, 36.6724
9750.000000, 88.046, 46.8458
9880.000000, 87.788, 56.7173
10000.000000, 87.673, 65.1585
10150.000000, 87.596, 74.7858
10300.000000, 87.521, 83.7174
10440.000000, 87.426, 91.7529
10600.000000, 87.285, 100.8809
10750.000000, 87.129, 109.5517
10900.000000, 86.965, 118.4374
11060.000000, 86.796, 128.2161
11200.000000, 86.664, 137.0383
11380.000000, 86.533, 148.7346
11500.000000, 86.474, 156.7233
11720.000000, 86.434, 171.6697
11800.000000, 86.443, 177.1712
12060.000000, 86.562, -164.8034
12200.000000, 86.683, -155.0480
12410.000000, 86.939, -140.3944
12500.000000, 87.075, -134.1151
12650.000000, 87.339, -123.6617
12800.000000, 87.651, -113.2404
13150.000000, 88.584, -89.3629
13200.000000, 88.744, -86.0629
13400.000000, 89.463, -73.1914
13600.000000, 90.326, -60.8186
13800.000000, 91.356, -49.1349
14000.000000, 92.574, -38.5180
14300.000000, 94.766, -26.0693
14500.000000, 96.390, -21.6494
14750.000000, 98.219, -22.4622
15000.000000, 99.142, -29.6737
15250.000000, 98.678, -38.2163
15500.000000, 97.092, -42.1353
15750.000000, 95.100, -39.4519
16000.000000, 93.237, -31.9686
16250.000000, 91.676, -22.1764
16500.000000, 90.391, -11.7345
16750.000000, 89.314, -1.6936
17000.000000, 88.357, 6.7727
17250.000000, 87.274, 12.0870
17500.000000, 85.424, 16.2024
17750.000000, 82.839, 31.7068
18000.000000, 81.439, 54.0981
18250.000000, 80.948, 67.2358
18500.000000, 80.340, 76.7228
18750.000000, 79.613, 85.1174
19000.000000, 78.813, 92.0082
19250.000000, 77.890, 97.2462
19500.000000, 76.803, 100.8993
19750.000000, 75.588, 103.1894
20000.000000, 74.683, 104.5038
