* Measurement data measured by REW V5.31.3
* Source: USB-C to 3.5mm Headphone Jack Adapter, USB-C to 3.5mm Headphone Jack Adapter, 0, volume: 0.264
* Format: 256k Log Swept Sine, 1 sweep at -12.0 dBFS with no timing reference
* Dated: Feb 24, 2025 12:06:29 PM
* REW Settings:
*  C-weighting compensation: Off
*  Target level: 75.0 dB
* Note: ; 
* Measurement: Tanchjim Oxygen R
* Smoothing: 1/24 octave
* Frequency Step: 1/48 octave
* Start Frequency: 1.000 Hz
*
* Freq(Hz), SPL(dB), Phase(degrees)
1.000000, 42.707, 1.0093
1.015000, 42.950, 0.6424
1.030000, 43.191, 0.2648
1.044000, 43.414, -0.0978
1.060000, 43.666, -0.5248
1.075000, 43.900, -0.9377
1.090000, 44.132, -1.3624
1.106000, 44.377, -1.8236
1.120000, 44.589, -2.2257
1.138000, 44.858, -2.7350
1.150000, 45.035, -3.0697
1.172000, 45.356, -3.6747
1.180000, 45.471, -3.8922
1.206000, 45.840, -4.5922
1.220000, 46.036, -4.9654
1.241000, 46.326, -5.5219
1.250000, 46.449, -5.7595
1.265000, 46.652, -6.1548
1.280000, 46.853, -6.5497
1.315000, 47.314, -7.4723
1.320000, 47.379, -7.6046
1.340000, 47.637, -8.1352
1.360000, 47.891, -8.6694
1.380000, 48.143, -9.2081
1.400000, 48.391, -9.7522
1.430000, 48.759, -10.5804
1.450000, 49.001, -11.1412
1.475000, 49.299, -11.8479
1.500000, 49.592, -12.5482
1.525000, 49.879, -13.2372
1.550000, 50.160, -13.9167
1.575000, 50.436, -14.5891
1.600000, 50.707, -15.2566
1.625000, 50.973, -15.9215
1.650000, 51.235, -16.5859
1.675000, 51.492, -17.2517
1.700000, 51.744, -17.9209
1.725000, 51.993, -18.5952
1.750000, 52.237, -19.2762
1.775000, 52.478, -19.9657
1.800000, 52.716, -20.6650
1.825000, 52.950, -21.3749
1.850000, 53.181, -22.0932
1.875000, 53.407, -22.8156
1.900000, 53.628, -23.5393
1.925000, 53.846, -24.2629
1.950000, 54.059, -24.9851
1.975000, 54.268, -25.7054
2.000000, 54.473, -26.4231
2.030000, 54.715, -27.2806
2.060000, 54.951, -28.1338
2.090000, 55.183, -28.9828
2.120000, 55.411, -29.8281
2.140000, 55.560, -30.3898
2.180000, 55.853, -31.5103
2.200000, 55.997, -32.0704
2.240000, 56.278, -33.1949
2.270000, 56.483, -34.0420
2.300000, 56.683, -34.8895
2.330000, 56.879, -35.7352
2.360000, 57.070, -36.5770
2.400000, 57.317, -37.6905
2.430000, 57.499, -38.5171
2.470000, 57.735, -39.6063
2.500000, 57.908, -40.4126
2.540000, 58.133, -41.4733
2.580000, 58.353, -42.5226
2.620000, 58.566, -43.5716
2.650000, 58.720, -44.3595
2.690000, 58.921, -45.4078
2.720000, 59.067, -46.1897
2.760000, 59.257, -47.2226
2.800000, 59.441, -48.2409
2.850000, 59.664, -49.4878
2.900000, 59.880, -50.7016
2.950000, 60.089, -51.8864
3.000000, 60.290, -53.0603
3.040000, 60.444, -53.9946
3.070000, 60.557, -54.6906
3.110000, 60.703, -55.6090
3.150000, 60.845, -56.5134
3.200000, 61.017, -57.6190
3.250000, 61.184, -58.6917
3.300000, 61.346, -59.7301
3.350000, 61.503, -60.7441
3.400000, 61.654, -61.7427
3.450000, 61.799, -62.7249
3.500000, 61.939, -63.6874
3.550000, 62.076, -64.6269
3.600000, 62.209, -65.5399
3.650000, 62.339, -66.4242
3.700000, 62.467, -67.2824
3.750000, 62.591, -68.1203
3.820000, 62.759, -69.2630
3.870000, 62.875, -70.0577
3.950000, 63.056, -71.2907
4.000000, 63.168, -72.0364
4.060000, 63.300, -72.9056
4.120000, 63.430, -73.7488
4.180000, 63.557, -74.5693
4.250000, 63.702, -75.5023
4.310000, 63.825, -76.2842
4.370000, 63.947, -77.0521
4.440000, 64.088, -77.9302
4.500000, 64.208, -78.6666
4.550000, 64.306, -79.2700
4.620000, 64.443, -80.1026
4.680000, 64.558, -80.8078
4.750000, 64.691, -81.6240
4.820000, 64.822, -82.4338
4.870000, 64.915, -83.0075
4.940000, 65.044, -83.8043
5.000000, 65.152, -84.4822
5.080000, 65.294, -85.3807
5.150000, 65.415, -86.1638
5.220000, 65.534, -86.9453
5.300000, 65.667, -87.8352
5.380000, 65.797, -88.7189
5.450000, 65.907, -89.4854
5.520000, 66.015, -90.2461
5.600000, 66.134, -91.1115
5.700000, 66.278, -92.1852
5.800000, 66.416, -93.2421
5.900000, 66.549, -94.2777
6.000000, 66.676, -95.2973
6.080000, 66.774, -96.1008
6.150000, 66.858, -96.7923
6.220000, 66.940, -97.4713
6.300000, 67.031, -98.2327
6.400000, 67.141, -99.1659
6.500000, 67.248, -100.0785
6.600000, 67.352, -100.9693
6.700000, 67.454, -101.8385
6.800000, 67.554, -102.6889
6.900000, 67.652, -103.5235
7.000000, 67.749, -104.3440
7.100000, 67.844, -105.1507
7.200000, 67.937, -105.9459
7.300000, 68.029, -106.7328
7.400000, 68.120, -107.5132
7.500000, 68.209, -108.2871
7.620000, 68.314, -109.2081
7.750000, 68.423, -110.1989
7.880000, 68.529, -111.1835
8.000000, 68.624, -112.0839
8.120000, 68.714, -112.9750
8.250000, 68.808, -113.9310
8.380000, 68.897, -114.8718
8.500000, 68.975, -115.7237
8.620000, 69.050, -116.5605
8.750000, 69.127, -117.4464
8.850000, 69.184, -118.1110
9.000000, 69.266, -119.0820
9.120000, 69.329, -119.8359
9.250000, 69.395, -120.6288
9.380000, 69.460, -121.3986
9.500000, 69.519, -122.0913
9.620000, 69.578, -122.7678
9.750000, 69.640, -123.4842
9.880000, 69.702, -124.1877
10.000000, 69.759, -124.8275
10.150000, 69.829, -125.6163
10.300000, 69.899, -126.3973
10.440000, 69.962, -127.1210
10.600000, 70.033, -127.9424
10.750000, 70.097, -128.7081
10.900000, 70.159, -129.4687
11.060000, 70.222, -130.2720
11.200000, 70.274, -130.9675
11.380000, 70.337, -131.8474
11.500000, 70.377, -132.4240
11.720000, 70.447, -133.4579
11.800000, 70.471, -133.8257
12.060000, 70.546, -134.9919
12.200000, 70.584, -135.6021
12.410000, 70.641, -136.4971
12.500000, 70.664, -136.8745
12.650000, 70.703, -137.4961
12.800000, 70.740, -138.1104
13.150000, 70.824, -139.5217
13.200000, 70.835, -139.7210
13.400000, 70.878, -140.5123
13.600000, 70.918, -141.2914
13.800000, 70.955, -142.0554
14.000000, 70.989, -142.7996
14.300000, 71.035, -143.8728
14.500000, 71.064, -144.5573
14.750000, 71.100, -145.3816
15.000000, 71.137, -146.1793
15.250000, 71.176, -146.9630
15.500000, 71.216, -147.7460
15.750000, 71.256, -148.5371
16.000000, 71.294, -149.3398
16.250000, 71.327, -150.1490
16.500000, 71.355, -150.9545
16.750000, 71.378, -151.7426
17.000000, 71.396, -152.5012
17.250000, 71.412, -153.2242
17.500000, 71.427, -153.9122
17.750000, 71.444, -154.5742
18.000000, 71.463, -155.2229
18.250000, 71.484, -155.8712
18.500000, 71.505, -156.5278
18.750000, 71.523, -157.1930
19.000000, 71.538, -157.8603
19.250000, 71.548, -158.5165
19.500000, 71.553, -159.1487
19.750000, 71.557, -159.7481
20.000000, 71.560, -160.3129
20.299999, 71.566, -160.9555
20.600000, 71.577, -161.5814
20.900000, 71.591, -162.2137
21.200001, 71.604, -162.8649
21.400000, 71.611, -163.3073
21.799999, 71.618, -164.1880
22.000000, 71.617, -164.6128
22.400000, 71.612, -165.4078
22.700001, 71.611, -165.9580
23.000000, 71.613, -166.4876
23.299999, 71.620, -167.0210
23.600000, 71.629, -167.5768
24.000000, 71.637, -168.3577
24.299999, 71.636, -168.9556
24.700001, 71.626, -169.7276
25.000000, 71.614, -170.2651
25.400000, 71.597, -170.9181
25.799999, 71.586, -171.5192
26.200001, 71.582, -172.1049
26.500000, 71.582, -172.5523
26.900000, 71.582, -173.1706
27.200001, 71.582, -173.6498
27.600000, 71.577, -174.3009
28.000000, 71.567, -174.9509
28.500000, 71.546, -175.7325
29.000000, 71.520, -176.4505
29.500000, 71.495, -177.0980
30.000000, 71.476, -177.7018
30.400000, 71.466, -178.1813
30.700001, 71.461, -178.5508
31.100000, 71.454, -179.0626
31.500000, 71.445, -179.5953
32.000000, 71.429, 179.7243
32.500000, 71.405, 179.0545
33.000000, 71.375, 178.4236
33.500000, 71.343, 177.8427
34.000000, 71.313, 177.3008
34.500000, 71.286, 176.7800
35.000000, 71.261, 176.2731
35.500000, 71.238, 175.7800
36.000000, 71.218, 175.2897
36.500000, 71.201, 174.7781
37.000000, 71.182, 174.2328
37.500000, 71.156, 173.6742
38.200001, 71.107, 172.9461
38.700001, 71.071, 172.4907
39.500000, 71.024, 171.8175
40.000000, 70.998, 171.3886
40.599998, 70.967, 170.8584
41.200001, 70.933, 170.3307
41.799999, 70.898, 169.8167
42.500000, 70.857, 169.2295
43.099998, 70.821, 168.7353
43.700001, 70.784, 168.2558
44.400002, 70.740, 167.7207
45.000000, 70.703, 167.2798
45.500000, 70.673, 166.9216
46.200001, 70.630, 166.4322
46.799999, 70.593, 166.0201
47.500000, 70.550, 165.5400
48.200001, 70.504, 165.0635
48.700001, 70.469, 164.7339
49.400002, 70.420, 164.2941
50.000000, 70.378, 163.9335
50.799999, 70.326, 163.4640
51.500000, 70.282, 163.0471
52.200001, 70.237, 162.6169
53.000000, 70.183, 162.1430
53.799999, 70.130, 161.7083
54.500000, 70.087, 161.3252
55.200001, 70.042, 160.9318
56.000000, 69.987, 160.4974
57.000000, 69.914, 159.9765
58.000000, 69.833, 159.5642
59.000000, 69.775, 159.2390
60.000000, 69.731, 158.7482
60.799999, 69.683, 158.2819
61.500000, 69.634, 157.8989
62.200001, 69.582, 157.5504
63.000000, 69.523, 157.1996
64.000000, 69.458, 156.7993
65.000000, 69.394, 156.3909
66.000000, 69.327, 156.0199
67.000000, 69.264, 155.6744
68.000000, 69.201, 155.3052
69.000000, 69.132, 154.9514
70.000000, 69.065, 154.6298
71.000000, 69.000, 154.2972
72.000000, 68.934, 153.9665
73.000000, 68.869, 153.6656
74.000000, 68.809, 153.3667
75.000000, 68.748, 153.0605
76.199997, 68.674, 152.7180
77.500000, 68.592, 152.3450
78.800003, 68.506, 152.0232
80.000000, 68.431, 151.7576
81.199997, 68.359, 151.4891
82.500000, 68.281, 151.1781
83.800003, 68.199, 150.8682
85.000000, 68.123, 150.6249
86.199997, 68.050, 150.3904
87.500000, 67.974, 150.1647
88.500000, 67.923, 149.9827
90.000000, 67.840, 149.6438
91.199997, 67.765, 149.4316
92.500000, 67.687, 149.2414
93.800003, 67.609, 149.0573
95.000000, 67.538, 148.8848
96.199997, 67.464, 148.6960
97.500000, 67.384, 148.5233
98.800003, 67.307, 148.3498
100.000000, 67.233, 148.2358
101.500000, 67.151, 148.1168
103.000000, 67.062, 148.0148
104.400002, 66.994, 147.9450
106.000000, 66.914, 147.7529
107.500000, 66.833, 147.6234
109.000000, 66.758, 147.5568
110.599998, 66.679, 147.4804
112.000000, 66.600, 147.4232
113.800003, 66.497, 147.4224
115.000000, 66.441, 147.4400
117.199997, 66.373, 147.3856
118.000000, 66.353, 147.3290
120.599998, 66.283, 147.2316
122.000000, 66.238, 147.1755
124.099998, 66.147, 146.9987
125.000000, 66.103, 146.9062
126.500000, 66.033, 146.7271
128.000000, 65.967, 146.5481
131.500000, 65.835, 146.3901
132.000000, 65.815, 146.3747
134.000000, 65.723, 146.3335
136.000000, 65.628, 146.3198
138.000000, 65.544, 146.2540
140.000000, 65.466, 146.1820
143.000000, 65.350, 146.1466
145.000000, 65.273, 146.1440
147.500000, 65.178, 146.1049
150.000000, 65.083, 146.0594
152.500000, 64.981, 146.0443
155.000000, 64.884, 146.0920
157.500000, 64.799, 146.1251
160.000000, 64.714, 146.1571
162.500000, 64.630, 146.1558
165.000000, 64.540, 146.2050
167.500000, 64.458, 146.2315
170.000000, 64.369, 146.2931
172.500000, 64.290, 146.3661
175.000000, 64.203, 146.4003
177.500000, 64.124, 146.5436
180.000000, 64.047, 146.6315
182.500000, 63.959, 146.7656
185.000000, 63.880, 146.9248
187.500000, 63.806, 146.9880
190.000000, 63.724, 147.1172
192.500000, 63.647, 147.3646
195.000000, 63.578, 147.5606
197.500000, 63.510, 147.7617
200.000000, 63.435, 147.9313
203.000000, 63.348, 148.0816
206.000000, 63.285, 148.0738
209.000000, 63.231, 148.0535
212.000000, 63.146, 148.1668
214.000000, 63.083, 148.3495
218.000000, 62.986, 148.6622
220.000000, 62.942, 148.7824
224.000000, 62.849, 149.0294
227.000000, 62.781, 149.1937
230.000000, 62.711, 149.3589
233.000000, 62.642, 149.5536
236.000000, 62.575, 149.7599
240.000000, 62.490, 150.0377
243.000000, 62.426, 150.2452
247.000000, 62.343, 150.5154
250.000000, 62.281, 150.7255
254.000000, 62.207, 151.0404
258.000000, 62.133, 151.3070
262.000000, 62.048, 151.5525
265.000000, 61.987, 151.7611
269.000000, 61.909, 152.0651
272.000000, 61.855, 152.3480
276.000000, 61.792, 152.7532
280.000000, 61.730, 153.0533
285.000000, 61.629, 153.3421
290.000000, 61.553, 153.6623
295.000000, 61.494, 154.0159
300.000000, 61.417, 154.3653
304.000000, 61.354, 154.5016
307.000000, 61.314, 154.7086
311.000000, 61.257, 155.1149
315.000000, 61.205, 155.4062
320.000000, 61.136, 155.9919
325.000000, 61.049, 156.3765
330.000000, 60.990, 156.6205
335.000000, 60.923, 157.0229
340.000000, 60.863, 157.3785
345.000000, 60.807, 157.8431
350.000000, 60.746, 158.2913
355.000000, 60.692, 158.7104
360.000000, 60.652, 159.0593
365.000000, 60.621, 159.3638
370.000000, 60.592, 159.6304
375.000000, 60.552, 159.8958
382.000000, 60.479, 160.4231
387.000000, 60.413, 160.9519
395.000000, 60.329, 161.7263
400.000000, 60.287, 162.1260
406.000000, 60.232, 162.6480
412.000000, 60.168, 163.0753
418.000000, 60.122, 163.4569
425.000000, 60.068, 164.0757
431.000000, 60.022, 164.5349
437.000000, 59.980, 164.9918
444.000000, 59.931, 165.5190
450.000000, 59.890, 165.9575
455.000000, 59.856, 166.2665
462.000000, 59.811, 166.7805
468.000000, 59.777, 167.3862
475.000000, 59.747, 168.0475
482.000000, 59.689, 168.5190
487.000000, 59.659, 168.7887
494.000000, 59.627, 169.2186
500.000000, 59.598, 169.6630
508.000000, 59.569, 170.2645
515.000000, 59.536, 170.7076
522.000000, 59.489, 171.2309
530.000000, 59.445, 171.8910
538.000000, 59.409, 172.5666
545.000000, 59.378, 173.2896
552.000000, 59.344, 174.1602
560.000000, 59.295, 174.7690
570.000000, 59.275, 175.0157
580.000000, 59.263, 175.5620
590.000000, 59.239, 176.2312
600.000000, 59.211, 176.9444
608.000000, 59.189, 177.5412
615.000000, 59.171, 178.0532
622.000000, 59.153, 178.5521
630.000000, 59.135, 179.1412
640.000000, 59.109, 179.8786
650.000000, 59.093, -179.4441
660.000000, 59.079, -178.6703
670.000000, 59.061, -177.9431
680.000000, 59.047, -177.2281
690.000000, 59.036, -176.5036
700.000000, 59.027, -175.7679
710.000000, 59.020, -175.0367
720.000000, 59.014, -174.3076
730.000000, 59.010, -173.5593
740.000000, 59.013, -172.8079
750.000000, 59.016, -172.0926
762.000000, 59.019, -171.2171
775.000000, 59.027, -170.2570
788.000000, 59.042, -169.2976
800.000000, 59.058, -168.4109
812.000000, 59.077, -167.5232
825.000000, 59.103, -166.5637
838.000000, 59.134, -165.6090
850.000000, 59.167, -164.7336
862.000000, 59.203, -163.8614
875.000000, 59.249, -162.9288
885.000000, 59.289, -162.2223
900.000000, 59.354, -161.1784
912.000000, 59.410, -160.3584
925.000000, 59.474, -159.5054
938.000000, 59.542, -158.6953
950.000000, 59.602, -157.9790
962.000000, 59.656, -157.2444
975.000000, 59.721, -156.3629
988.000000, 59.805, -155.4671
1000.000000, 59.894, -154.7155
1015.000000, 60.010, -153.8773
1030.000000, 60.127, -153.1315
1044.000000, 60.234, -152.5075
1060.000000, 60.348, -151.8553
1075.000000, 60.445, -151.2246
1090.000000, 60.546, -150.5136
1106.000000, 60.671, -149.7682
1120.000000, 60.787, -149.1987
1138.000000, 60.936, -148.5682
1150.000000, 61.033, -148.1855
1172.000000, 61.205, -147.5279
1180.000000, 61.266, -147.2990
1206.000000, 61.463, -146.5541
1220.000000, 61.572, -146.1382
1241.000000, 61.750, -145.5240
1250.000000, 61.832, -145.2851
1265.000000, 61.976, -144.9545
1280.000000, 62.123, -144.7357
1315.000000, 62.443, -144.6358
1320.000000, 62.484, -144.6513
1340.000000, 62.635, -144.7422
1360.000000, 62.769, -144.8455
1380.000000, 62.890, -144.9401
1400.000000, 63.002, -145.0212
1430.000000, 63.159, -145.1272
1450.000000, 63.257, -145.1882
1475.000000, 63.371, -145.2539
1500.000000, 63.477, -145.3066
1525.000000, 63.577, -145.3403
1550.000000, 63.670, -145.3424
1575.000000, 63.760, -145.3023
1600.000000, 63.850, -145.2074
1625.000000, 63.947, -145.0690
1650.000000, 64.052, -144.9312
1675.000000, 64.166, -144.8404
1700.000000, 64.281, -144.8285
1725.000000, 64.390, -144.8969
1750.000000, 64.486, -145.0054
1775.000000, 64.571, -145.1066
1800.000000, 64.647, -145.1700
1825.000000, 64.716, -145.1685
1850.000000, 64.787, -145.0845
1875.000000, 64.868, -144.9411
1900.000000, 64.963, -144.8121
1925.000000, 65.065, -144.7727
1950.000000, 65.161, -144.8185
1975.000000, 65.241, -144.8680
2000.000000, 65.313, -144.8337
2030.000000, 65.408, -144.6462
2060.000000, 65.532, -144.3916
2090.000000, 65.687, -144.2475
2120.000000, 65.855, -144.3160
2140.000000, 65.963, -144.4781
2180.000000, 66.147, -144.9194
2200.000000, 66.230, -145.1269
2240.000000, 66.405, -145.5605
2270.000000, 66.540, -146.0589
2300.000000, 66.654, -146.7241
2330.000000, 66.733, -147.4444
2360.000000, 66.783, -148.1152
2400.000000, 66.813, -148.8270
2430.000000, 66.812, -149.1526
2470.000000, 66.811, -149.1477
2500.000000, 66.844, -148.8016
2540.000000, 66.980, -148.2078
2580.000000, 67.207, -148.0528
2620.000000, 67.439, -148.5852
2650.000000, 67.577, -149.2415
2690.000000, 67.721, -150.1189
2720.000000, 67.822, -150.7260
2760.000000, 67.968, -151.6203
2800.000000, 68.106, -152.7894
2850.000000, 68.216, -154.5679
2900.000000, 68.240, -156.3500
2950.000000, 68.200, -157.8703
3000.000000, 68.126, -159.0235
3040.000000, 68.063, -159.6842
3070.000000, 68.022, -160.0610
3110.000000, 67.982, -160.4734
3150.000000, 67.954, -160.8539
3200.000000, 67.928, -161.3301
3250.000000, 67.904, -161.7917
3300.000000, 67.881, -162.2147
3350.000000, 67.862, -162.6034
3400.000000, 67.846, -162.9709
3450.000000, 67.833, -163.3192
3500.000000, 67.823, -163.6532
3550.000000, 67.817, -163.9854
3600.000000, 67.814, -164.3205
3650.000000, 67.813, -164.6593
3700.000000, 67.815, -165.0013
3750.000000, 67.820, -165.3484
3820.000000, 67.832, -165.8547
3870.000000, 67.844, -166.2448
3950.000000, 67.869, -166.9386
4000.000000, 67.888, -167.4268
4060.000000, 67.909, -168.0844
4120.000000, 67.927, -168.8203
4180.000000, 67.939, -169.6223
4250.000000, 67.946, -170.6339
4310.000000, 67.946, -171.5779
4370.000000, 67.939, -172.6151
4440.000000, 67.915, -173.9584
4500.000000, 67.874, -175.2180
4550.000000, 67.821, -176.3296
4620.000000, 67.716, -177.9475
4680.000000, 67.593, -179.3564
4750.000000, 67.408, 179.0277
4820.000000, 67.177, 177.5068
4870.000000, 66.986, 176.5194
4940.000000, 66.683, 175.3263
5000.000000, 66.398, 174.5187
5080.000000, 65.989, 173.8109
5150.000000, 65.617, 173.5907
5220.000000, 65.251, 173.7648
5300.000000, 64.866, 174.3660
5380.000000, 64.528, 175.2133
5450.000000, 64.266, 176.0198
5520.000000, 64.023, 176.8348
5600.000000, 63.755, 177.8015
5700.000000, 63.428, 179.1740
5800.000000, 63.119, -179.1384
5900.000000, 62.866, -177.0931
6000.000000, 62.699, -175.0458
6080.000000, 62.591, -173.6505
6150.000000, 62.490, -172.4532
6220.000000, 62.392, -171.1594
6300.000000, 62.303, -169.5648
6400.000000, 62.237, -167.5084
6500.000000, 62.219, -165.4765
6600.000000, 62.242, -163.5022
6700.000000, 62.307, -161.5799
6800.000000, 62.418, -159.7217
6900.000000, 62.581, -157.9760
7000.000000, 62.801, -156.4072
7100.000000, 63.081, -155.0814
7200.000000, 63.426, -154.0863
7300.000000, 63.840, -153.5452
7400.000000, 64.317, -153.6191
7500.000000, 64.849, -154.4997
7620.000000, 65.528, -156.9286
7750.000000, 66.229, -161.6426
7880.000000, 66.748, -168.6856
8000.000000, 66.911, -176.8537
8120.000000, 66.665, 174.3376
8250.000000, 65.930, 165.4682
8380.000000, 64.822, 158.4615
8500.000000, 63.615, 154.0858
8620.000000, 62.356, 151.6343
8750.000000, 61.024, 150.7850
8850.000000, 60.057, 151.1327
9000.000000, 58.724, 152.8650
9120.000000, 57.764, 155.0355
9250.000000, 56.830, 157.9471
9380.000000, 55.998, 161.2849
9500.000000, 55.314, 164.6353
9620.000000, 54.705, 168.1717
9750.000000, 54.123, 172.1616
9880.000000, 53.616, 176.2796
10000.000000, 53.210, -179.8337
10150.000000, 52.781, -174.8910
10300.000000, 52.434, -169.8811
10440.000000, 52.180, -165.1379
10600.000000, 51.971, -159.6053
10750.000000, 51.856, -154.2502
10900.000000, 51.829, -148.6455
11060.000000, 51.923, -142.2552
11200.000000, 52.151, -136.1775
11380.000000, 52.768, -127.6086
11500.000000, 53.495, -121.6587
11720.000000, 55.703, -112.5915
11800.000000, 56.762, -110.8842
12060.000000, 60.528, -114.4692
12200.000000, 62.410, -122.1499
12410.000000, 64.631, -140.0991
12500.000000, 65.240, -149.7733
12650.000000, 65.624, -167.4032
12800.000000, 65.139, 175.1207
13150.000000, 61.666, 146.5384
13200.000000, 61.077, 144.1676
13400.000000, 58.837, 138.0440
13600.000000, 56.960, 135.5551
13800.000000, 55.481, 134.9786
14000.000000, 54.353, 135.2851
14300.000000, 53.226, 136.3317
14500.000000, 52.853, 136.9253
14750.000000, 52.818, 136.5821
15000.000000, 53.247, 134.1982
15250.000000, 54.178, 128.4806
15500.000000, 55.528, 117.0227
15750.000000, 56.740, 97.3419
16000.000000, 56.820, 70.6872
16250.000000, 55.222, 43.5265
16500.000000, 52.405, 21.8108
16750.000000, 49.237, 6.3518
17000.000000, 46.280, -5.1260
17250.000000, 43.675, -14.9894
17500.000000, 41.361, -24.7649
17750.000000, 39.236, -35.3866
18000.000000, 37.212, -47.5460
18250.000000, 35.204, -61.7675
18500.000000, 33.126, -78.5951
18750.000000, 30.890, -98.5397
19000.000000, 28.387, -122.0074
19250.000000, 25.483, -149.3768
19500.000000, 22.016, 179.5082
19750.000000, 17.934, 144.7118
20000.000000, 14.268, 110.7331
