* Measurement data measured by REW V5.31.3
* Source: USB-C to 3.5mm Headphone Jack Adapter, USB-C to 3.5mm Headphone Jack Adapter, 0, volume: 0.470
* Format: 256k Log Swept Sine, 1 sweep at -12.0 dBFS with no timing reference
* Dated: Feb 23, 2025 6:23:51 AM
* REW Settings:
*  C-weighting compensation: Off
*  Target level: 75.0 dB
* Note: ; 
* Measurement: Truthear Zero R
* Smoothing: 1/24 octave
* Frequency Step: 1/48 octave
* Start Frequency: 1.000 Hz
*
* Freq(Hz), SPL(dB), Phase(degrees)
1.000000, 51.858, 6.9246
1.015000, 51.963, 5.8618
1.030000, 52.066, 4.8082
1.044000, 52.162, 3.8318
1.060000, 52.270, 2.7226
1.075000, 52.371, 1.6875
1.090000, 52.472, 0.6537
1.106000, 52.579, -0.4575
1.120000, 52.670, -1.4509
1.138000, 52.785, -2.7637
1.150000, 52.859, -3.6593
1.172000, 52.991, -5.3371
1.180000, 53.037, -5.9569
1.206000, 53.185, -7.9988
1.220000, 53.261, -9.1114
1.241000, 53.372, -10.7903
1.250000, 53.419, -11.5117
1.265000, 53.495, -12.7143
1.280000, 53.569, -13.9147
1.315000, 53.734, -16.6927
1.320000, 53.757, -17.0856
1.340000, 53.847, -18.6442
1.360000, 53.934, -20.1780
1.380000, 54.019, -21.6829
1.400000, 54.101, -23.1548
1.430000, 54.221, -25.2940
1.450000, 54.298, -26.6720
1.475000, 54.392, -28.3557
1.500000, 54.482, -30.0429
1.525000, 54.567, -31.7528
1.550000, 54.648, -33.4816
1.575000, 54.725, -35.2224
1.600000, 54.798, -36.9685
1.625000, 54.866, -38.7137
1.650000, 54.931, -40.4516
1.675000, 54.991, -42.1767
1.700000, 55.048, -43.8834
1.725000, 55.101, -45.5669
1.750000, 55.151, -47.2226
1.775000, 55.197, -48.8465
1.800000, 55.239, -50.4356
1.825000, 55.278, -51.9928
1.850000, 55.314, -53.5413
1.875000, 55.347, -55.1127
1.900000, 55.375, -56.7143
1.925000, 55.400, -58.3415
1.950000, 55.422, -59.9875
1.975000, 55.439, -61.6453
2.000000, 55.453, -63.3074
2.030000, 55.465, -65.2967
2.060000, 55.472, -67.2678
2.090000, 55.473, -69.2070
2.120000, 55.469, -71.1006
2.140000, 55.463, -72.3313
2.180000, 55.445, -74.7035
2.200000, 55.432, -75.8491
2.240000, 55.399, -78.1206
2.270000, 55.368, -79.8396
2.300000, 55.333, -81.5736
2.330000, 55.292, -83.3167
2.360000, 55.245, -85.0614
2.400000, 55.174, -87.3742
2.430000, 55.115, -89.0854
2.470000, 55.026, -91.3134
2.500000, 54.952, -92.9278
2.540000, 54.844, -94.9818
2.580000, 54.725, -96.9233
2.620000, 54.595, -98.8077
2.650000, 54.491, -100.2058
2.690000, 54.344, -102.0526
2.720000, 54.226, -103.4218
2.760000, 54.059, -105.2177
2.800000, 53.882, -106.9659
2.850000, 53.644, -109.0528
2.900000, 53.387, -110.9844
2.950000, 53.111, -112.7219
3.000000, 52.811, -114.2839
3.040000, 52.554, -115.4244
3.070000, 52.354, -116.2179
3.110000, 52.079, -117.1916
3.150000, 51.795, -118.0639
3.200000, 51.432, -118.9975
3.250000, 51.064, -119.7317
3.300000, 50.691, -120.2222
3.350000, 50.295, -120.3917
3.400000, 49.872, -120.1891
3.450000, 49.434, -119.6117
3.500000, 49.003, -118.6719
3.550000, 48.596, -117.3939
3.600000, 48.236, -115.8171
3.650000, 47.937, -113.9804
3.700000, 47.702, -111.8430
3.750000, 47.514, -109.3204
3.820000, 47.324, -105.2281
3.870000, 47.241, -102.0701
3.950000, 47.203, -97.0026
4.000000, 47.243, -94.0282
4.060000, 47.368, -90.7686
4.120000, 47.591, -87.8282
4.180000, 47.893, -85.2169
4.250000, 48.304, -82.6089
4.310000, 48.668, -80.7389
4.370000, 49.013, -79.1803
4.440000, 49.384, -77.7356
4.500000, 49.693, -76.8011
4.550000, 49.949, -76.1970
4.620000, 50.301, -75.5414
4.680000, 50.590, -75.0922
4.750000, 50.906, -74.6374
4.820000, 51.196, -74.2519
4.870000, 51.389, -74.0330
4.940000, 51.643, -73.7918
5.000000, 51.851, -73.6228
5.080000, 52.122, -73.4150
5.150000, 52.356, -73.2253
5.220000, 52.585, -73.0256
5.300000, 52.839, -72.8072
5.380000, 53.089, -72.6279
5.450000, 53.308, -72.5220
5.520000, 53.529, -72.4652
5.600000, 53.786, -72.4399
5.700000, 54.107, -72.4827
5.800000, 54.421, -72.6645
5.900000, 54.723, -73.0246
6.000000, 55.017, -73.5402
6.080000, 55.243, -74.0432
6.150000, 55.428, -74.5429
6.220000, 55.599, -75.1003
6.300000, 55.778, -75.8186
6.400000, 55.977, -76.8240
6.500000, 56.148, -77.8790
6.600000, 56.284, -78.9267
6.700000, 56.386, -79.9877
6.800000, 56.455, -81.0552
6.900000, 56.495, -82.0486
7.000000, 56.508, -82.9132
7.100000, 56.492, -83.6687
7.200000, 56.454, -84.3076
7.300000, 56.404, -84.7842
7.400000, 56.346, -85.0658
7.500000, 56.279, -85.1626
7.620000, 56.201, -85.0770
7.750000, 56.139, -84.7615
7.880000, 56.101, -84.2156
8.000000, 56.090, -83.6140
8.120000, 56.107, -83.0161
8.250000, 56.158, -82.3820
8.380000, 56.227, -81.8241
8.500000, 56.296, -81.4391
8.620000, 56.371, -81.1680
8.750000, 56.445, -80.9495
8.850000, 56.490, -80.8175
9.000000, 56.538, -80.6582
9.120000, 56.565, -80.4714
9.250000, 56.582, -80.1359
9.380000, 56.592, -79.6559
9.500000, 56.615, -79.0551
9.620000, 56.659, -78.2764
9.750000, 56.735, -77.2778
9.880000, 56.860, -76.2233
10.000000, 57.028, -75.2517
10.150000, 57.300, -74.1487
10.300000, 57.632, -73.3841
10.440000, 57.990, -73.0286
10.600000, 58.423, -73.1070
10.750000, 58.829, -73.6887
10.900000, 59.222, -74.6819
11.060000, 59.604, -76.1206
11.200000, 59.900, -77.6465
11.380000, 60.226, -79.8034
11.500000, 60.405, -81.3179
11.720000, 60.666, -84.1080
11.800000, 60.741, -85.0860
12.060000, 60.931, -88.0779
12.200000, 61.011, -89.5167
12.410000, 61.117, -91.4615
12.500000, 61.162, -92.2259
12.650000, 61.241, -93.4209
12.800000, 61.324, -94.5613
13.150000, 61.535, -97.1921
13.200000, 61.565, -97.5793
13.400000, 61.677, -99.1753
13.600000, 61.767, -100.8286
13.800000, 61.825, -102.5130
14.000000, 61.847, -104.1551
14.300000, 61.811, -106.4139
14.500000, 61.750, -107.6990
14.750000, 61.648, -109.0210
15.000000, 61.531, -110.0375
15.250000, 61.409, -110.8094
15.500000, 61.281, -111.3895
15.750000, 61.138, -111.7785
16.000000, 60.976, -111.9073
16.250000, 60.802, -111.6445
16.500000, 60.645, -110.8878
16.750000, 60.549, -109.6339
17.000000, 60.564, -108.0935
17.250000, 60.714, -106.6467
17.500000, 60.985, -105.7233
17.750000, 61.326, -105.6277
18.000000, 61.674, -106.4234
18.250000, 61.975, -107.9936
18.500000, 62.193, -110.0910
18.750000, 62.314, -112.4350
19.000000, 62.345, -114.7657
19.250000, 62.302, -116.8578
19.500000, 62.214, -118.5774
19.750000, 62.109, -119.8604
20.000000, 62.011, -120.7142
20.299999, 61.925, -121.2384
20.600000, 61.887, -121.2956
20.900000, 61.910, -120.9460
21.200001, 62.012, -120.2652
21.400000, 62.137, -119.7092
21.799999, 62.533, -118.7355
22.000000, 62.794, -118.5122
22.400000, 63.370, -118.9142
22.700001, 63.783, -119.9620
23.000000, 64.131, -121.4628
23.299999, 64.398, -123.1691
23.600000, 64.591, -124.8670
24.000000, 64.767, -126.9317
24.299999, 64.859, -128.3372
24.700001, 64.928, -130.1030
25.000000, 64.923, -131.3150
25.400000, 64.825, -132.5071
25.799999, 64.664, -132.7846
26.200001, 64.556, -131.9742
26.500000, 64.586, -130.9526
26.900000, 64.797, -129.8456
27.200001, 65.031, -129.6591
27.600000, 65.327, -130.3970
28.000000, 65.516, -131.8570
28.500000, 65.576, -133.7773
29.000000, 65.525, -135.1097
29.500000, 65.459, -135.7601
30.000000, 65.425, -135.9394
30.400000, 65.437, -135.8969
30.700001, 65.476, -135.8703
31.100000, 65.565, -136.0358
31.500000, 65.661, -136.5913
32.000000, 65.716, -137.7428
32.500000, 65.662, -138.8799
33.000000, 65.562, -139.5137
33.500000, 65.518, -139.7730
34.000000, 65.551, -140.2251
34.500000, 65.599, -141.1704
35.000000, 65.610, -142.4106
35.500000, 65.596, -143.6535
36.000000, 65.582, -144.8167
36.500000, 65.571, -145.9003
37.000000, 65.555, -146.7760
37.500000, 65.557, -147.2684
38.200001, 65.659, -147.3761
38.700001, 65.816, -147.3409
39.500000, 66.158, -147.5883
40.000000, 66.385, -148.0767
40.599998, 66.614, -149.0081
41.200001, 66.752, -150.0552
41.799999, 66.813, -150.8869
42.500000, 66.848, -151.5625
43.099998, 66.859, -152.0911
43.700001, 66.844, -152.5479
44.400002, 66.846, -152.9402
45.000000, 66.902, -153.5599
45.500000, 66.947, -154.5457
46.200001, 66.909, -156.2894
46.799999, 66.796, -157.3705
47.500000, 66.723, -157.9355
48.200001, 66.756, -158.6298
48.700001, 66.763, -159.3424
49.400002, 66.718, -159.9350
50.000000, 66.735, -159.8335
50.799999, 66.909, -159.9798
51.500000, 67.046, -160.8755
52.200001, 67.105, -161.9318
53.000000, 67.119, -163.2094
53.799999, 67.007, -164.2592
54.500000, 66.891, -164.2169
55.200001, 66.930, -163.9621
56.000000, 67.026, -164.8586
57.000000, 66.880, -166.3843
58.000000, 66.674, -165.5790
59.000000, 66.935, -163.7492
60.000000, 67.439, -165.4449
60.799999, 67.472, -168.3839
61.500000, 67.292, -169.6713
62.200001, 67.205, -169.8430
63.000000, 67.241, -170.4722
64.000000, 67.162, -172.0906
65.000000, 66.979, -172.8204
66.000000, 66.933, -172.9049
67.000000, 67.001, -173.7904
68.000000, 67.001, -175.1980
69.000000, 66.975, -176.2223
70.000000, 66.987, -176.9532
71.000000, 67.027, -177.7738
72.000000, 66.999, -178.6324
73.000000, 66.935, -178.8368
74.000000, 66.928, -179.0143
75.000000, 66.877, -179.5029
76.199997, 66.796, -179.8481
77.500000, 66.763, 179.7119
78.800003, 66.838, 178.7858
80.000000, 66.926, 176.9141
81.199997, 66.920, 174.2133
82.500000, 66.671, 171.6266
83.800003, 66.397, 171.0887
85.000000, 66.314, 171.2722
86.199997, 66.307, 171.6088
87.500000, 66.401, 171.8511
88.500000, 66.443, 171.3738
90.000000, 66.403, 170.7603
91.199997, 66.392, 169.6498
92.500000, 66.220, 167.4969
93.800003, 65.856, 166.5242
95.000000, 65.655, 167.7306
96.199997, 65.828, 169.1263
97.500000, 66.208, 167.9843
98.800003, 66.330, 163.8860
100.000000, 65.961, 159.6186
101.500000, 65.223, 158.1829
103.000000, 65.064, 159.1005
104.400002, 65.185, 158.1881
106.000000, 65.179, 159.9387
107.500000, 65.544, 161.7513
109.000000, 65.533, 162.2152
110.599998, 65.660, 164.8207
112.000000, 65.799, 163.5760
113.800003, 65.359, 161.0092
115.000000, 64.951, 160.1973
117.199997, 64.373, 160.1617
118.000000, 64.344, 159.8747
120.599998, 64.050, 156.9135
122.000000, 63.874, 156.6920
124.099998, 63.701, 157.5878
125.000000, 63.698, 157.6913
126.500000, 63.724, 157.9260
128.000000, 64.052, 157.9115
131.500000, 64.850, 152.9601
132.000000, 64.910, 152.3496
134.000000, 64.731, 149.7958
136.000000, 63.982, 151.5298
138.000000, 63.851, 157.4241
140.000000, 63.989, 156.2552
143.000000, 63.293, 153.8888
145.000000, 63.012, 152.1896
147.500000, 62.734, 147.8702
150.000000, 62.961, 147.2047
152.500000, 63.247, 150.5269
155.000000, 63.777, 157.3135
157.500000, 63.946, 158.7916
160.000000, 63.762, 158.0703
162.500000, 62.932, 149.0722
165.000000, 61.563, 145.5073
167.500000, 61.530, 142.6048
170.000000, 62.007, 144.2880
172.500000, 62.764, 149.4669
175.000000, 63.180, 152.7690
177.500000, 62.675, 152.8505
180.000000, 61.493, 151.7808
182.500000, 60.851, 153.4060
185.000000, 60.842, 152.7162
187.500000, 60.423, 152.4203
190.000000, 60.319, 156.2440
192.500000, 61.068, 158.0732
195.000000, 61.387, 155.8249
197.500000, 60.838, 158.0183
200.000000, 60.528, 161.6353
203.000000, 60.291, 155.0632
206.000000, 59.905, 153.4696
209.000000, 59.974, 159.4241
212.000000, 59.908, 166.0828
214.000000, 59.716, 166.9868
218.000000, 59.321, 161.2466
220.000000, 59.323, 160.1415
224.000000, 59.601, 167.2101
227.000000, 59.848, 167.4465
230.000000, 59.739, 164.6995
233.000000, 60.042, 167.4419
236.000000, 60.999, 169.2748
240.000000, 61.646, 168.0692
243.000000, 61.138, 168.6382
247.000000, 59.985, 169.1600
250.000000, 60.046, 169.0721
254.000000, 60.274, 170.7367
258.000000, 59.532, 171.0583
262.000000, 59.092, 170.1950
265.000000, 59.013, 171.3308
269.000000, 59.361, 171.2928
272.000000, 59.741, 170.0755
276.000000, 59.695, 170.1374
280.000000, 59.572, 169.1433
285.000000, 59.597, 168.6138
290.000000, 59.416, 166.8532
295.000000, 58.963, 170.6945
300.000000, 58.883, 178.9410
304.000000, 58.982, 179.6912
307.000000, 59.188, 177.0747
311.000000, 59.563, 173.5954
315.000000, 59.612, 175.4259
320.000000, 59.079, -179.3726
325.000000, 59.052, -177.7467
330.000000, 59.161, 179.7061
335.000000, 59.043, 179.5397
340.000000, 59.000, -179.5473
345.000000, 59.032, -175.1486
350.000000, 58.385, -171.4887
355.000000, 58.225, -174.2386
360.000000, 58.971, -177.0879
365.000000, 59.296, -179.0817
370.000000, 59.344, -179.9474
375.000000, 59.205, -178.8760
382.000000, 59.254, -176.2064
387.000000, 59.178, -175.9426
395.000000, 58.908, -178.0733
400.000000, 58.945, -178.0697
406.000000, 58.888, 179.7102
412.000000, 58.823, 178.5054
418.000000, 58.801, 178.5454
425.000000, 58.726, -179.3681
431.000000, 58.564, -177.7419
437.000000, 58.520, -175.0967
444.000000, 58.558, -174.9276
450.000000, 58.576, -175.6380
455.000000, 58.520, -174.7815
462.000000, 58.513, -172.5352
468.000000, 58.447, -171.3566
475.000000, 58.596, -171.0870
482.000000, 58.830, -170.3596
487.000000, 58.829, -169.4427
494.000000, 58.599, -170.7030
500.000000, 58.331, -170.9162
508.000000, 58.415, -169.0398
515.000000, 58.575, -168.5493
522.000000, 58.644, -167.7356
530.000000, 58.599, -166.7454
538.000000, 58.553, -165.6287
545.000000, 58.580, -164.7172
552.000000, 58.570, -163.5705
560.000000, 58.562, -162.1357
570.000000, 58.698, -161.8291
580.000000, 58.691, -162.1279
590.000000, 58.715, -160.9110
600.000000, 58.714, -159.9246
608.000000, 58.700, -158.8145
615.000000, 58.732, -158.5264
622.000000, 58.785, -158.7541
630.000000, 58.906, -158.2645
640.000000, 59.083, -157.1640
650.000000, 59.165, -156.6446
660.000000, 59.180, -156.1094
670.000000, 59.255, -155.7454
680.000000, 59.303, -155.3555
690.000000, 59.343, -154.7857
700.000000, 59.399, -154.6395
710.000000, 59.479, -154.4086
720.000000, 59.566, -154.4238
730.000000, 59.627, -154.4454
740.000000, 59.667, -154.0741
750.000000, 59.678, -153.8232
762.000000, 59.632, -153.6140
775.000000, 59.627, -152.9526
788.000000, 59.660, -152.1322
800.000000, 59.679, -151.6528
812.000000, 59.688, -151.0158
825.000000, 59.715, -150.4980
838.000000, 59.739, -149.9492
850.000000, 59.761, -149.4268
862.000000, 59.792, -148.7056
875.000000, 59.835, -147.9471
885.000000, 59.859, -147.5027
900.000000, 59.913, -146.6721
912.000000, 59.964, -145.9341
925.000000, 60.012, -145.1707
938.000000, 60.064, -144.4104
950.000000, 60.122, -143.7231
962.000000, 60.191, -143.0432
975.000000, 60.268, -142.3460
988.000000, 60.337, -141.6701
1000.000000, 60.403, -141.0767
1015.000000, 60.495, -140.4108
1030.000000, 60.609, -139.7545
1044.000000, 60.718, -139.1334
1060.000000, 60.836, -138.5003
1075.000000, 60.946, -137.9120
1090.000000, 61.060, -137.4036
1106.000000, 61.181, -136.9457
1120.000000, 61.285, -136.5496
1138.000000, 61.420, -136.0722
1150.000000, 61.507, -135.8202
1172.000000, 61.658, -135.3859
1180.000000, 61.712, -135.2393
1206.000000, 61.883, -134.8091
1220.000000, 61.975, -134.5942
1241.000000, 62.103, -134.3172
1250.000000, 62.154, -134.2219
1265.000000, 62.236, -134.0459
1280.000000, 62.315, -133.8461
1315.000000, 62.494, -133.4840
1320.000000, 62.518, -133.4336
1340.000000, 62.614, -133.2138
1360.000000, 62.708, -133.0006
1380.000000, 62.795, -132.7907
1400.000000, 62.882, -132.5368
1430.000000, 63.014, -132.1761
1450.000000, 63.098, -131.9361
1475.000000, 63.202, -131.6163
1500.000000, 63.305, -131.3020
1525.000000, 63.412, -130.9672
1550.000000, 63.517, -130.6280
1575.000000, 63.623, -130.3195
1600.000000, 63.726, -129.9830
1625.000000, 63.830, -129.6198
1650.000000, 63.937, -129.3014
1675.000000, 64.046, -128.9959
1700.000000, 64.159, -128.6897
1725.000000, 64.270, -128.3880
1750.000000, 64.381, -128.1009
1775.000000, 64.495, -127.8254
1800.000000, 64.610, -127.5528
1825.000000, 64.727, -127.2774
1850.000000, 64.848, -127.0241
1875.000000, 64.973, -126.7906
1900.000000, 65.097, -126.5876
1925.000000, 65.223, -126.4014
1950.000000, 65.352, -126.2526
1975.000000, 65.482, -126.1544
2000.000000, 65.612, -126.0777
2030.000000, 65.764, -125.9923
2060.000000, 65.914, -125.9589
2090.000000, 66.066, -125.9610
2120.000000, 66.218, -125.9912
2140.000000, 66.318, -126.0256
2180.000000, 66.518, -126.1578
2200.000000, 66.616, -126.2544
2240.000000, 66.809, -126.4921
2270.000000, 66.953, -126.7122
2300.000000, 67.095, -126.9782
2330.000000, 67.233, -127.2807
2360.000000, 67.367, -127.6173
2400.000000, 67.540, -128.1209
2430.000000, 67.664, -128.5412
2470.000000, 67.823, -129.1601
2500.000000, 67.936, -129.6609
2540.000000, 68.075, -130.3719
2580.000000, 68.204, -131.1247
2620.000000, 68.323, -131.9135
2650.000000, 68.403, -132.5257
2690.000000, 68.499, -133.3562
2720.000000, 68.563, -133.9909
2760.000000, 68.637, -134.8488
2800.000000, 68.697, -135.6980
2850.000000, 68.754, -136.7405
2900.000000, 68.793, -137.7470
2950.000000, 68.813, -138.7074
3000.000000, 68.818, -139.5915
3040.000000, 68.813, -140.2255
3070.000000, 68.805, -140.6544
3110.000000, 68.791, -141.1583
3150.000000, 68.778, -141.5878
3200.000000, 68.769, -142.0488
3250.000000, 68.768, -142.4858
3300.000000, 68.771, -142.9605
3350.000000, 68.767, -143.4842
3400.000000, 68.748, -144.0105
3450.000000, 68.713, -144.4847
3500.000000, 68.668, -144.8609
3550.000000, 68.620, -145.1284
3600.000000, 68.573, -145.2879
3650.000000, 68.533, -145.3415
3700.000000, 68.503, -145.3085
3750.000000, 68.484, -145.2153
3820.000000, 68.482, -145.0550
3870.000000, 68.495, -144.9582
3950.000000, 68.536, -144.8773
4000.000000, 68.573, -144.8794
4060.000000, 68.624, -144.9378
4120.000000, 68.682, -145.0772
4180.000000, 68.742, -145.2984
4250.000000, 68.812, -145.6503
4310.000000, 68.872, -146.0297
4370.000000, 68.931, -146.4844
4440.000000, 68.995, -147.1205
4500.000000, 69.044, -147.7591
4550.000000, 69.079, -148.3534
4620.000000, 69.114, -149.2751
4680.000000, 69.131, -150.1287
4750.000000, 69.133, -151.1785
4820.000000, 69.116, -152.2729
4870.000000, 69.092, -153.0651
4940.000000, 69.041, -154.1755
5000.000000, 68.983, -155.1217
5080.000000, 68.885, -156.3637
5150.000000, 68.779, -157.4170
5220.000000, 68.655, -158.4264
5300.000000, 68.493, -159.5171
5380.000000, 68.309, -160.5143
5450.000000, 68.131, -161.2814
5520.000000, 67.941, -161.9297
5600.000000, 67.711, -162.5119
5700.000000, 67.413, -162.9982
5800.000000, 67.112, -163.2051
5900.000000, 66.820, -163.1450
6000.000000, 66.544, -162.8360
6080.000000, 66.337, -162.4297
6150.000000, 66.169, -161.9764
6220.000000, 66.015, -161.4365
6300.000000, 65.858, -160.7249
6400.000000, 65.697, -159.7172
6500.000000, 65.576, -158.6151
6600.000000, 65.501, -157.4651
6700.000000, 65.474, -156.3169
6800.000000, 65.499, -155.2213
6900.000000, 65.577, -154.2209
7000.000000, 65.711, -153.3745
7100.000000, 65.903, -152.7386
7200.000000, 66.156, -152.3920
7300.000000, 66.470, -152.4416
7400.000000, 66.842, -153.0245
7500.000000, 67.265, -154.2849
7620.000000, 67.809, -156.9208
7750.000000, 68.382, -161.4009
7880.000000, 68.844, -167.6903
8000.000000, 69.066, -174.9117
8120.000000, 69.008, 177.0585
8250.000000, 68.595, 168.3425
8380.000000, 67.858, 160.5334
8500.000000, 66.980, 154.6646
8620.000000, 66.005, 150.2292
8750.000000, 64.927, 146.9008
8850.000000, 64.122, 145.2032
9000.000000, 62.992, 143.7142
9120.000000, 62.162, 143.1682
9250.000000, 61.334, 142.9880
9380.000000, 60.561, 143.1011
9500.000000, 59.879, 143.4456
9620.000000, 59.216, 144.0899
9750.000000, 58.525, 145.2609
9880.000000, 57.889, 147.0012
10000.000000, 57.378, 149.0544
10150.000000, 56.869, 151.9932
10300.000000, 56.513, 155.0395
10440.000000, 56.305, 157.7865
10600.000000, 56.200, 160.6214
10750.000000, 56.218, 162.8586
10900.000000, 56.341, 164.5327
11060.000000, 56.568, 165.4822
11200.000000, 56.812, 165.3801
11380.000000, 57.093, 163.7424
11500.000000, 57.180, 161.8770
11720.000000, 56.997, 158.4258
11800.000000, 56.842, 157.7780
12060.000000, 56.511, 159.4500
12200.000000, 56.743, 161.7906
12410.000000, 57.830, 164.1480
12500.000000, 58.549, 163.9666
12650.000000, 60.018, 161.1061
12800.000000, 61.665, 154.0157
13150.000000, 64.149, 119.1730
13200.000000, 64.147, 112.9626
13400.000000, 63.144, 89.3808
13600.000000, 61.140, 71.4819
13800.000000, 59.018, 59.3599
14000.000000, 57.229, 50.5039
14300.000000, 55.222, 39.2289
14500.000000, 54.224, 31.8432
14750.000000, 53.281, 22.1665
15000.000000, 52.670, 11.7266
15250.000000, 52.412, 0.2565
15500.000000, 52.559, -12.6089
15750.000000, 53.147, -27.6976
16000.000000, 54.177, -46.1198
16250.000000, 55.538, -69.2614
16500.000000, 56.864, -98.4177
16750.000000, 57.526, -133.3318
17000.000000, 57.016, -171.0732
17250.000000, 55.378, 152.3588
17500.000000, 53.097, 118.7781
17750.000000, 50.658, 87.4274
18000.000000, 48.299, 56.6170
18250.000000, 46.056, 24.7264
18500.000000, 43.867, -9.5944
18750.000000, 41.625, -47.6776
19000.000000, 39.219, -90.3999
19250.000000, 36.518, -138.4657
19500.000000, 33.387, 167.2787
19750.000000, 29.807, 104.6010
20000.000000, 26.753, 38.7822
